Jaz Data File
++++++++++++++++++++++++++++++++++++
Date: Wed Feb 07 06:42:24 2024
User: jaz
Dark Spectrum Present: Yes
Reference Spectrum Present: Yes
Processed Spectrum Present: Yes
Spectrometers: JAZA3692
Integration Time (usec): 40000 (JAZA3692)
Spectra Averaged: 1 (JAZA3692)
Boxcar Smoothing: 0 (JAZA3692)
Correct for Electrical Dark: No (JAZA3692)
Strobe/Lamp Enabled: Yes (JAZA3692)
Correct for Detector Non-linearity: No (JAZA3692)
Correct for Stray Light: No (JAZA3692)
Number of Pixels in Processed Spectrum: 2048
>>>>>Begin Processed Spectral Data<<<<<
W	D	R	S	P
190.244385	0.000000	0.000000	0.000000	0.000000
190.627136	0.000000	0.000000	0.000000	0.000000
191.009842	1133.209351	1160.515625	1099.076538	-124.999886
191.392532	1219.679199	1183.270874	1105.903076	312.500305
191.775177	1244.709839	1165.066650	1055.841675	237.142899
192.157791	1153.689087	1171.893188	1155.964600	12.500000
192.540390	1174.168701	1199.199463	1160.515625	-54.545189
192.922943	1128.658325	1212.852539	1144.586914	18.918863
193.305481	1171.893188	1212.852539	1135.484863	-88.888924
193.687958	1210.577026	1221.954712	1167.342163	-379.997009
194.070419	1153.689087	1167.342163	1165.066650	83.333336
194.452866	1206.026001	1203.750488	1169.617676	1600.005371
194.835251	1194.648438	1260.638550	1217.403687	34.482815
195.217621	1242.434326	1187.821899	1176.444214	120.833511
195.599960	1226.505737	1178.719727	1192.372925	71.428459
195.982254	1228.781250	1260.638550	1187.821899	-128.571320
196.364517	1208.301514	1178.719727	1176.444214	107.692276
196.746750	1240.158813	1149.138062	1117.280762	135.000046
197.128952	1224.230225	1199.199463	1178.719727	181.818268
197.511139	1180.995239	1171.893188	1169.617676	125.000000
197.893280	1224.230225	1187.821899	1167.342163	156.250153
198.275391	1192.372925	1224.230225	1165.066650	-85.714340
198.657471	1206.026001	1251.536499	1212.852539	14.999920
199.039520	1203.750488	1237.883301	1092.250000	-326.666565
199.421539	1208.301514	1210.577026	1096.801025	-4900.016113
199.803513	1180.995239	1153.689087	1140.035889	150.000443
200.185471	1180.995239	1196.923950	1117.280762	-399.997711
200.567383	1221.954712	1244.709839	1185.546387	-160.000534
200.949265	1119.556274	1208.301514	1174.168701	61.538429
201.331131	1167.342163	1199.199463	1176.444214	28.571320
201.712967	1192.372925	1183.270874	1162.791138	325.001343
202.094742	1176.444214	1171.893188	1158.240112	400.000000
202.476517	1226.505737	1240.158813	1149.138062	-566.668457
202.858231	1153.689087	1158.240112	1115.005249	-850.002686
203.239944	1183.270874	1167.342163	1167.342163	100.000000
203.621582	1192.372925	1190.097412	1158.240112	1500.005371
204.003235	1237.883301	1194.648438	1135.484863	236.842285
204.384827	1219.679199	1251.536499	1119.556274	-314.285645
204.766388	1167.342163	1228.781250	1151.413574	-25.925823
205.147934	1185.546387	1176.444214	1121.831787	699.993286
205.529449	1146.862427	1231.056763	1142.311401	-5.405382
205.910904	1201.474976	1242.434326	1210.577026	22.222157
206.292343	1117.280762	1201.474976	1140.035889	27.026949
206.673767	1267.465088	1233.332275	1228.781250	113.333282
207.055115	1176.444214	1237.883301	1142.311401	-55.555534
207.436462	1251.536499	1199.199463	1149.138062	195.651962
207.817780	1151.413574	1224.230225	1101.352051	-68.750107
208.199051	1235.607788	1217.403687	1158.240112	425.001343
208.580307	1080.872437	1219.679199	1087.698975	4.918015
208.961517	1212.852539	1187.821899	1137.760376	300.000977
209.342712	1174.168701	1215.128052	1042.188477	-322.222443
209.723846	1246.985352	1190.097412	1144.586914	180.000259
210.104965	1167.342163	1144.586914	1083.147949	369.999084
210.486069	1224.230225	1194.648438	1190.097412	115.384552
210.867111	1128.658325	1231.056763	1146.862427	17.777714
211.248123	1233.332275	1201.474976	1130.933838	321.428497
211.629120	1115.005249	1212.852539	1137.760376	23.255756
212.010071	1219.679199	1167.342163	1137.760376	156.521713
212.390991	1171.893188	1180.995239	1158.240112	-150.000000
212.771881	1126.382813	1187.821899	1140.035889	22.222134
213.152756	1208.301514	1265.189575	1176.444214	-55.999973
213.533569	1142.311401	1176.444214	1206.026001	186.666718
213.914368	1165.066650	1137.760376	1140.035889	91.666702
214.295135	1215.128052	1174.168701	1128.658325	211.111084
214.675858	1128.658325	1151.413574	1187.821899	259.999664
215.056549	1203.750488	1160.515625	1108.178589	221.052856
215.437225	1124.107300	1199.199463	1146.862427	30.302931
215.817841	1212.852539	1237.883301	1144.586914	-272.726929
216.198441	1183.270874	1178.719727	1160.515625	499.989258
216.579025	1183.270874	1242.434326	1167.342163	-26.923227
216.959549	1206.026001	1199.199463	1180.995239	366.668457
217.340057	1140.035889	1258.363037	1169.617676	25.000000
217.720535	1217.403687	1146.862427	1083.147949	190.322281
218.100967	1135.484863	1235.607788	1162.791138	27.272749
218.481369	1190.097412	1169.617676	1194.648438	-22.222090
218.861740	1226.505737	1185.546387	1124.107300	250.000153
219.242065	1231.056763	1274.291626	1135.484863	-221.052856
219.622391	1212.852539	1178.719727	1115.005249	286.666351
220.002670	1162.791138	1201.474976	1158.240112	-11.764668
220.382919	1146.862427	1217.403687	1119.556274	-38.709476
220.763123	1262.914063	1233.332275	1130.933838	446.153656
221.143295	1226.505737	1165.066650	1110.454102	188.888931
221.523453	1165.066650	1130.933838	1155.964600	26.666571
221.903549	1162.791138	1160.515625	1190.097412	-1200.005371
222.283630	1089.974487	1221.954712	1221.954712	100.000000
222.663696	1237.883301	1192.372925	1112.729614	275.000336
223.043701	1155.964600	1235.607788	1096.801025	-74.285789
223.423676	1158.240112	1206.026001	1108.178589	-104.762146
223.803635	1178.719727	1206.026001	1121.831787	-208.332855
224.183548	1190.097412	1165.066650	1055.841675	536.362976
224.563431	1196.923950	1253.812012	1149.138062	-83.999855
224.943283	1194.648438	1167.342163	1085.423462	399.999542
225.323105	1178.719727	1228.781250	1155.964600	-45.454323
225.702881	1215.128052	1210.577026	1144.586914	1550.005371
226.082642	1187.821899	1246.985352	1103.627563	-142.308014
226.462357	1203.750488	1226.505737	1155.964600	-209.999405
226.842041	1167.342163	1287.944824	1119.556274	-39.622581
227.221695	1233.332275	1233.332275	1160.515625	0.000000
227.601318	1151.413574	1233.332275	1137.760376	-16.666765
227.980911	1183.270874	1283.393677	1165.066650	-18.181896
228.360474	1237.883301	1206.026001	1119.556274	371.428284
228.739990	1167.342163	1242.434326	1112.729614	-72.727364
229.119476	1137.760376	1226.505737	1133.209351	-5.128184
229.498932	1126.382813	1338.006226	1101.352051	-11.827973
229.878372	1199.199463	1385.792114	1187.821899	-6.097541
230.257736	1190.097412	1472.261963	1067.219238	-43.548409
230.637115	1133.209351	1426.751587	1144.586914	3.875954
231.016449	1190.097412	1372.139038	1158.240112	-17.500008
231.395737	1206.026001	1372.139038	1130.933838	-45.205460
231.774994	1199.199463	1299.322388	1144.586914	-54.545498
232.154221	1201.474976	1438.129150	1071.770264	-54.807701
232.533417	1171.893188	1240.158813	1078.596802	-136.666718
232.912582	1201.474976	1347.108276	1215.128052	9.374969
233.291702	1206.026001	1322.077637	1167.342163	-33.333298
233.670792	1201.474976	1285.669312	1092.250000	-129.729599
234.049866	1196.923950	1267.465088	1126.382813	-100.000000
234.428894	1144.586914	1347.108276	1176.444214	15.730340
234.807892	1174.168701	1317.526489	1151.413574	-15.872962
235.186874	1219.679199	1422.200562	1135.484863	-41.573063
235.565781	1151.413574	1429.027100	1089.974487	-22.131157
235.944687	1174.168701	1397.169800	1149.138062	-11.224447
236.323547	1135.484863	1347.108276	1135.484863	0.000000
236.702377	1160.515625	1342.557251	1126.382813	-18.750004
237.081177	1155.964600	1388.067749	1206.026001	21.568600
237.459946	1119.556274	1417.649414	1140.035889	6.870206
237.838669	1267.465088	1344.832764	1101.352051	-214.705994
238.217361	1149.138062	1342.557251	1194.648438	23.529400
238.596039	1217.403687	1278.842651	1124.107300	-151.852142
238.974670	1160.515625	1315.250977	1103.627563	-36.764748
239.353271	1208.301514	1383.516602	1087.698975	-68.831139
239.731842	1149.138062	1422.200562	1153.689087	1.666661
240.110367	1180.995239	1335.730713	1126.382813	-35.294056
240.488876	1187.821899	1422.200562	1203.750488	6.796092
240.867340	1201.474976	1390.343262	1178.719727	-12.048211
241.245789	1219.679199	1438.129150	1085.423462	-61.458351
241.624176	1089.974487	1508.670288	1140.035889	11.956509
242.002548	1171.893188	1413.098389	1174.168701	0.943393
242.380890	1155.964600	1542.803101	1140.035889	-4.117664
242.759186	1210.577026	1672.507813	1160.515625	-10.837424
243.137451	1171.893188	1788.559326	1201.474976	4.797050
243.515686	1158.240112	1784.008301	1153.689087	-0.727270
243.893890	1140.035889	1733.946899	1112.729614	-4.597705
244.272049	1160.515625	1790.834839	1178.719727	2.888077
244.650192	1135.484863	1686.160889	1190.097412	9.917364
245.028290	1221.954712	1647.477051	1203.750488	-4.278089
245.406357	1103.627563	1642.926025	1183.270874	14.767947
245.784393	1171.893188	1654.303589	1119.556274	-10.849044
246.162384	1208.301514	1570.109375	1190.097412	-5.031428
246.540359	1219.679199	1661.130127	1190.097412	-6.701036
246.918289	1167.342163	1722.569214	1235.607788	12.295083
247.296204	1130.933838	1909.161987	1160.515625	3.801172
247.674057	1208.301514	2143.540527	1237.883301	3.163019
248.051895	1183.270874	2275.520752	1210.577026	2.499991
248.429703	1244.709839	2387.021240	1201.474976	-3.784858
248.807465	1153.689087	2341.510986	1201.474976	4.022985
249.185196	1185.546387	2177.673340	1303.873413	11.926601
249.562897	1178.719727	2038.866699	1226.505737	5.555563
249.940567	1199.199463	1929.641602	1137.760376	-8.411219
250.318192	1174.168701	1925.090576	1192.372925	2.424250
250.695801	1203.750488	1790.834839	1151.413574	-8.914718
251.073349	1165.066650	1688.436401	1153.689087	-2.173905
251.450882	1155.964600	1697.538574	1192.372925	6.722687
251.828400	1203.750488	1793.110352	1142.311401	-10.424715
252.205872	1201.474976	1749.875488	1183.270874	-3.319490
252.583313	1169.617676	1752.151001	1176.444214	1.171871
252.960693	1101.352051	1881.855713	1192.372925	11.661813
253.338074	1151.413574	1906.886475	1169.617676	2.409630
253.715408	1185.546387	1897.784302	1160.515625	-3.514382
254.092682	1180.995239	1836.345337	1171.893188	-1.388884
254.469955	1180.995239	1774.906250	1142.311401	-6.513406
254.847198	1190.097412	1642.926025	1146.862427	-9.547759
255.224365	1165.066650	1706.640625	1231.056763	12.184875
255.601563	1217.403687	1638.375000	1187.821899	-7.027031
255.978683	1192.372925	1672.507813	1174.168701	-3.791481
256.355743	1140.035889	1636.099487	1121.831787	-3.669711
256.732819	1183.270874	1713.467163	1144.586914	-7.296158
257.109894	1206.026001	1729.395752	1133.209351	-13.913041
257.486877	1158.240112	1722.569214	1162.791138	0.806449
257.863831	1208.301514	1772.630737	1153.689087	-9.677405
258.240753	1171.893188	1861.375977	1160.515625	-1.650159
258.617645	1178.719727	1834.069824	1190.097412	1.736123
258.994507	1112.729614	1961.498901	1165.066650	6.166226
259.371307	1171.893188	2070.723877	1201.474976	3.291141
259.748108	1128.658325	2202.704102	1133.209351	0.423727
260.124878	1112.729614	2380.194824	1183.270874	5.565538
260.501617	1169.617676	2614.573486	1237.883301	4.724409
260.878296	1162.791138	2728.349365	1187.821899	1.598839
261.254944	1194.648438	2960.452637	1235.607788	2.319586
261.631561	1135.484863	2883.084961	1133.209351	-0.130208
262.008179	1117.280762	2639.604248	1219.679199	6.726457
262.384735	1174.168701	2341.510986	1155.964600	-1.559448
262.761261	1124.107300	2189.051025	1221.954712	9.188036
263.137695	1105.903076	2050.244141	1194.648438	9.397596
263.514191	1174.168701	2070.723877	1137.760376	-4.060913
263.890594	1190.097412	2107.132324	1199.199463	0.992552
264.267029	1215.128052	1938.743774	1208.301514	-0.943393
264.643341	1192.372925	2041.142212	1199.199463	0.804287
265.019653	1185.546387	1922.815063	1149.138062	-4.938271
265.395935	1169.617676	2007.009399	1153.689087	-1.902167
265.772217	1212.852539	1986.529663	1210.577026	-0.294117
266.148407	1158.240112	1929.641602	1180.995239	2.949842
266.524597	1144.586914	2068.448486	1174.168701	3.201972
266.900726	1146.862427	2109.407715	1194.648438	4.964547
267.276855	1219.679199	2136.714111	1165.066650	-5.955340
267.652924	1085.423462	2327.857666	1146.862427	4.945048
268.028992	1140.035889	2298.276123	1135.484863	-0.392926
268.404999	1217.403687	2239.112549	1196.923950	-2.004459
268.781006	1194.648438	2223.183838	1176.444214	-1.769917
269.156921	1174.168701	2268.694336	1176.444214	0.207899
269.532837	1231.056763	2266.418701	1233.332275	0.219779
269.908661	1203.750488	2273.245361	1267.465088	5.957448
270.284546	1160.515625	2264.143311	1215.128052	4.948447
270.660339	1146.862427	2316.480225	1151.413574	0.389114
271.036133	1183.270874	2227.734863	1221.954712	3.703702
271.411835	1187.821899	2250.489990	1212.852539	2.355452
271.787537	1180.995239	2489.419678	1190.097412	0.695659
272.163239	1130.933838	2744.278076	1194.648438	3.949225
272.538849	1160.515625	2924.044189	1269.740601	6.193547
272.914459	1108.178589	2703.318604	1206.026001	6.134096
273.290070	1208.301514	2666.910400	1158.240112	-3.432133
273.665588	1190.097412	2571.338623	1128.658325	-4.448107
274.041046	1142.311401	2594.093750	1231.056763	6.112856
274.416565	1226.505737	2464.388916	1185.546387	-3.308822
274.791962	1167.342163	2525.828125	1176.444214	0.670014
275.167389	1124.107300	2402.949951	1140.035889	1.245547
275.542755	1203.750488	2482.593262	1153.689087	-3.914586
275.918060	1178.719727	2514.450439	1242.434326	4.770018
276.293365	1155.964600	2532.654541	1187.821899	2.314050
276.668640	1158.240112	2377.919189	1185.546387	2.238808
277.043854	1087.698975	2421.154053	1260.638550	12.969284
277.419037	1215.128052	2503.072998	1206.026001	-0.706711
277.794189	1194.648438	2564.511963	1253.812012	4.318939
278.169312	1183.270874	2625.950928	1267.465088	5.835959
278.544373	1115.005249	2539.481201	1249.260864	9.424912
278.919464	1251.536499	2491.695313	1265.189575	1.100914
279.294464	1151.413574	2553.134277	1212.852539	4.383111
279.669464	1133.209351	2498.521729	1135.484863	0.166666
280.044403	1146.862427	2466.664551	1228.781250	6.206902
280.419312	1190.097412	2414.327637	1190.097412	0.000000
280.794189	1167.342163	2582.716064	1199.199463	2.250804
281.169037	1158.240112	2559.960938	1210.577026	3.733762
281.543854	1196.923950	2591.818115	1162.791138	-2.446982
281.918671	1196.923950	2716.971924	1196.923950	0.000000
282.293365	1171.893188	2883.084961	1217.403687	2.659579
282.668091	1206.026001	2880.809326	1244.709839	2.309782
283.042786	1192.372925	2949.074951	1183.270874	-0.518133
283.417419	1192.372925	3076.504150	1265.189575	3.864733
283.792053	1217.403687	2949.074951	1233.332275	0.919839
284.166595	1221.954712	2773.859863	1183.270874	-2.492668
284.541138	1126.382813	2801.166016	1251.536499	7.472829
284.915619	1199.199463	2835.298828	1206.026001	0.417245
285.290100	1101.352051	2880.809326	1251.536499	8.439902
285.664520	1167.342163	2949.074951	1206.026001	2.171136
286.038940	1160.515625	2953.625977	1267.465088	5.964466
286.413300	1167.342163	2983.207764	1240.158813	4.010024
286.787628	1135.484863	3242.617188	1206.026001	3.347732
287.161896	1190.097412	3342.739990	1290.220337	4.651164
287.536194	1217.403687	3315.433838	1290.220337	3.470715
287.910400	1137.760376	3183.453613	1221.954712	4.115687
288.284607	1190.097412	3008.238525	1262.914063	4.005005
288.658752	1142.311401	2924.044189	1244.709839	5.747127
289.032867	1165.066650	2796.614990	1253.812012	5.439334
289.406921	1137.760376	2976.381104	1199.199463	3.341586
289.781006	1067.219238	2867.156250	1276.567139	11.630846
290.154999	1155.964600	2930.870850	1190.097412	1.923077
290.529022	1162.791138	2971.830078	1301.597900	7.672956
290.902954	1149.138062	3178.902588	1253.812012	5.156950
291.276825	1185.546387	3162.973877	1228.781250	2.186420
291.650757	1133.209351	3376.872803	1285.669312	6.795135
292.024597	1201.474976	3269.923340	1287.944824	4.180421
292.398407	1174.168701	3208.484375	1306.148926	6.487696
292.772156	1185.546387	3060.575439	1258.363037	3.883495
293.145905	1199.199463	3081.055176	1237.883301	2.055622
293.519592	1146.862427	3003.687500	1249.260864	5.514706
293.893280	1167.342163	3001.411865	1194.648438	1.488835
294.266907	1203.750488	3094.708252	1201.474976	-0.120337
294.640533	1128.658325	3188.004639	1190.097412	2.983427
295.014069	1128.658325	3365.495361	1301.597900	7.731434
295.387604	1144.586914	3379.148438	1208.301514	2.851325
295.761078	1196.923950	3558.914551	1224.230225	1.156070
296.134552	1176.444214	3502.026611	1215.128052	1.663404
296.507996	1212.852539	3476.995850	1249.260864	1.608040
296.881378	1242.434326	3476.995850	1315.250977	3.258655
297.254730	1160.515625	3647.659912	1219.679199	2.378775
297.628021	1221.954712	3957.130615	1217.403687	-0.166389
298.001282	1194.648438	3866.109863	1246.985352	1.959112
298.374573	1176.444214	3963.957275	1306.148926	4.653062
298.747803	1108.178589	3727.302979	1253.812012	5.560386
299.121002	1155.964600	3709.098877	1269.740601	4.456326
299.494141	1162.791138	3536.159424	1297.046875	5.656760
299.867188	1115.005249	3602.149414	1310.699951	7.868249
300.240265	1176.444214	3483.822266	1317.526489	6.114398
300.613312	1124.107300	3333.637939	1249.260864	5.664260
300.986328	1149.138062	3308.607178	1319.802124	7.903056
301.359314	1206.026001	3374.597412	1208.301514	0.104931
301.732239	1215.128052	3283.576416	1340.281738	6.050608
302.105103	1169.617676	3231.239502	1219.679199	2.428259
302.477997	1183.270874	3281.301025	1281.118164	4.663769
302.850830	1140.035889	3322.260254	1285.669312	6.673623
303.223602	1133.209351	3210.759766	1226.505737	4.490692
303.596375	1196.923950	3108.361328	1246.985352	2.619045
303.969116	1087.698975	3065.126465	1212.852539	6.329110
304.341766	1196.923950	3026.442627	1242.434326	2.487560
304.714478	1135.484863	3140.218750	1240.158813	5.221339
305.087067	1196.923950	2987.758789	1283.393677	4.828459
305.459656	1201.474976	3233.515137	1242.434326	2.015676
305.832214	1208.301514	3128.841064	1287.944824	4.146924
306.204681	1171.893188	3147.045166	1310.699951	7.027650
306.577148	1185.546387	3069.677490	1231.056763	2.415457
306.949646	1174.168701	3124.290039	1297.046875	6.301053
307.322021	1185.546387	3074.228516	1224.230225	2.048192
307.694397	1210.577026	3149.320801	1265.189575	2.816904
308.066742	1144.586914	3165.249512	1303.873413	7.882885
308.439026	1133.209351	3156.147461	1333.455200	9.898763
308.811279	1130.933838	3342.739990	1260.638550	5.864199
309.183502	1176.444214	3376.872803	1242.434326	2.998966
309.555695	1117.280762	3429.209961	1317.526489	8.661412
309.927887	1192.372925	3445.138428	1338.006226	6.464645
310.299988	1171.893188	3422.383301	1203.750488	1.415572
310.672058	1194.648438	3495.199951	1301.597900	4.648862
311.044128	1210.577026	3524.781738	1249.260864	1.671582
311.416168	1212.852539	3497.475586	1231.056763	0.796815
311.788147	1185.546387	3470.169189	1253.812012	2.988048
312.160065	1258.363037	3506.577637	1251.536499	-0.303643
312.531982	1233.332275	3506.577637	1285.669312	2.302305
312.903870	1194.648438	3379.148438	1233.332275	1.770833
313.275696	1199.199463	3345.015625	1258.363037	2.757159
313.647491	1144.586914	3356.393066	1294.771362	6.790127
314.019318	1165.066650	3276.750000	1231.056763	3.125000
314.391022	1237.883301	3299.505127	1215.128052	-1.103755
314.762726	1158.240112	3331.362549	1253.812012	4.397907
315.134369	1194.648438	3604.425049	1217.403687	0.944289
315.505981	1160.515625	3572.567627	1287.944824	5.283020
315.877594	1171.893188	3690.894775	1187.821899	0.632342
316.249146	1115.005249	3558.914551	1253.812012	5.679702
316.620636	1196.923950	3322.260254	1246.985352	2.355458
316.992157	1140.035889	3345.015625	1210.577026	3.199174
317.363586	1185.546387	3190.280273	1219.679199	1.702611
317.735016	1206.026001	3201.657715	1219.679199	0.684154
318.106354	1206.026001	3156.147461	1233.332275	1.400235
318.477722	1167.342163	3231.239502	1233.332275	3.197354
318.849060	1162.791138	3240.341553	1265.189575	4.928807
319.220306	1183.270874	3251.719238	1208.301514	1.210117
319.591522	1215.128052	3404.179199	1192.372925	-1.039497
319.962738	1178.719727	3399.628174	1237.883301	2.663936
320.333923	1126.382813	3347.291016	1251.536499	5.635248
320.705017	1212.852539	3292.678711	1210.577026	-0.109409
321.076111	1190.097412	3440.587402	1212.852539	1.011119
321.447144	1269.740601	3256.270264	1237.883301	-1.603666
321.818176	1219.679199	3276.750000	1301.597900	3.982299
322.189178	1210.577026	3092.432861	1265.189575	2.902058
322.560120	1135.484863	3317.709229	1178.719727	1.981229
322.931030	1190.097412	3301.780762	1185.546387	-0.215516
323.301910	1162.791138	3322.260254	1212.852539	2.318227
323.672729	1128.658325	3529.332764	1249.260864	5.023695
324.043549	1249.260864	3629.455566	1231.056763	-0.764816
324.414337	1130.933838	3649.935303	1246.985352	4.607044
324.785095	1140.035889	3884.313965	1262.914063	4.477614
325.155792	1115.005249	3927.548828	1315.250977	7.119738
325.526428	1217.403687	3909.344727	1246.985352	1.098897
325.897034	1149.138062	3891.140625	1235.607788	3.153525
326.267670	1105.903076	3831.977051	1253.812012	5.425713
326.638184	1221.954712	3813.772949	1283.393677	2.370497
327.008728	1155.964600	3879.762939	1310.699951	5.680867
327.379211	1215.128052	3779.640137	1285.669312	2.750670
327.749634	1176.444214	3688.619141	1260.638550	3.351452
328.120026	1151.413574	3661.312988	1335.730713	7.343606
328.490417	1224.230225	3656.761963	1267.465088	1.777361
328.860748	1174.168701	3686.343750	1265.189575	3.623190
329.231079	1212.852539	3529.332764	1251.536499	1.669946
329.601318	1203.750488	3538.434814	1308.424438	4.483430
329.971558	1128.658325	3661.312988	1276.567139	5.840070
330.341736	1190.097412	3627.180176	1287.944824	4.014940
330.711914	1190.097412	3695.445801	1315.250977	4.995456
331.082062	1133.209351	3645.384277	1308.424438	6.974638
331.452148	1180.995239	3722.751953	1231.056763	1.969564
331.822174	1094.525513	3461.067139	1310.699951	9.134614
332.192200	1158.240112	3745.507324	1265.189575	4.133685
332.562134	1171.893188	3740.956299	1272.016113	3.897254
332.932129	1171.893188	3800.119629	1353.934937	6.926410
333.302063	1174.168701	3900.242676	1328.904175	5.676129
333.671906	1165.066650	3979.885986	1319.802124	5.497172
334.041718	1190.097412	4098.212891	1317.526489	4.381844
334.411499	1155.964600	4102.764160	1306.148926	5.096523
334.781281	1221.954712	4027.671875	1328.904175	3.811840
335.151001	1183.270874	4075.457764	1392.618774	7.238394
335.520721	1149.138062	4004.916504	1265.189575	4.063744
335.890350	1142.311401	3993.539063	1344.832764	7.102953
336.259979	1187.821899	4016.294189	1272.016113	2.976668
336.629547	1160.515625	3911.620361	1322.077637	5.872623
336.999084	1137.760376	4016.294189	1322.077637	6.403165
337.368622	1130.933838	4000.365479	1308.424438	6.185566
337.738098	1249.260864	3943.477539	1385.792114	5.067567
338.107513	1194.648438	3991.263428	1326.628662	4.719285
338.476898	1219.679199	3950.304199	1297.046875	2.833332
338.846252	1158.240112	4027.671875	1356.210449	6.899287
339.215576	1151.413574	4064.080078	1406.271851	8.749998
339.584869	1219.679199	4127.794922	1403.996338	6.338026
339.954132	1185.546387	3970.783691	1422.200562	8.496733
340.323334	1167.342163	3925.273438	1360.761475	7.013203
340.692505	1165.066650	3948.028564	1442.680176	9.975470
341.061646	1206.026001	3879.762939	1310.699951	3.914894
341.430786	1121.831787	4027.671875	1335.730713	7.361001
341.799896	1176.444214	3973.059326	1347.108276	6.102522
342.168915	1178.719727	4116.416992	1326.628662	5.034860
342.537903	1144.586914	4168.753906	1369.863525	7.449212
342.906830	1226.505737	4166.478516	1340.281738	3.869968
343.275757	1233.332275	4400.857422	1392.618774	5.028737
343.644684	1208.301514	4409.959473	1413.098389	6.396588
344.013550	1231.056763	4289.356934	1442.680176	6.919641
344.382355	1201.474976	4498.704590	1360.761475	4.830919
344.751129	1176.444214	4785.420410	1356.210449	4.981087
345.119873	1128.658325	4871.890137	1510.945801	10.212765
345.488586	1149.138062	4940.155762	1401.720825	6.662664
345.857269	1165.066650	5019.798828	1397.169800	6.021252
346.225891	1244.709839	5292.861328	1426.751587	4.496911
346.594482	1190.097412	5199.564941	1406.271851	5.391600
346.963043	1174.168701	5179.085449	1465.435425	7.272728
347.331543	1194.648438	5012.972168	1490.466064	7.747316
347.700043	1103.627563	4815.001953	1394.894287	7.847948
348.068512	1162.791138	4651.164551	1401.720825	6.849315
348.436951	1212.852539	4544.214844	1394.894287	5.464484
348.805328	1158.240112	4610.205078	1422.200562	7.646673
349.173645	1099.076538	4478.225098	1342.557251	7.205387
349.541931	1144.586914	4580.623535	1415.373901	7.880795
349.910217	1187.821899	4667.093262	1426.751587	6.867233
350.278473	1208.301514	4753.562988	1331.179688	3.465983
350.646667	1153.689087	4824.104004	1360.761475	5.641661
351.014801	1165.066650	4903.747559	1465.435425	8.034084
351.382935	1178.719727	4794.522461	1401.720825	6.167402
351.751007	1112.729614	4892.369629	1381.241089	7.104155
352.119049	1183.270874	4917.400391	1431.302612	6.642291
352.487091	1190.097412	4853.686035	1351.659302	4.409935
352.855072	1237.883301	5010.696777	1322.077637	2.231606
353.222992	1210.577026	5076.687012	1442.680176	6.003532
353.590881	1187.821899	5012.972168	1408.547363	5.770373
353.958740	1178.719727	5113.095215	1390.343262	5.378834
354.326599	1217.403687	5272.381836	1390.343262	4.264871
354.694397	1110.454102	5454.423340	1456.333252	7.962284
355.062134	1187.821899	5581.852539	1451.782227	6.007248
355.429840	1190.097412	5452.147949	1460.884399	6.353444
355.797516	1185.546387	5606.883301	1456.333252	6.124547
356.165192	1235.607788	5854.915039	1495.017212	5.615765
356.532776	1194.648438	5934.558105	1410.822876	4.560729
356.900360	1169.617676	6091.569336	1442.680176	5.547850
357.267883	1169.617676	6234.926758	1586.037964	8.221025
357.635376	1249.260864	6548.948730	1474.537476	4.250752
358.002808	1160.515625	6874.348145	1469.986450	5.416169
358.370270	1144.586914	7145.135254	1572.384888	7.129315
358.737640	1228.781250	7190.645508	1529.150024	5.038168
359.105011	1187.821899	7074.594238	1583.762451	6.725936
359.472321	1162.791138	6715.062012	1460.884399	5.368853
359.839569	1178.719727	6599.010254	1447.231201	4.953821
360.206787	1160.515625	6564.877441	1438.129150	5.136842
360.574005	1144.586914	6808.358398	1545.078613	7.071113
360.941193	1124.107300	7136.033203	1492.741699	6.131719
361.308319	1201.474976	7648.025391	1561.007324	5.577128
361.675415	1167.342163	8053.068359	1558.731689	5.684071
362.042450	1174.168701	8631.050781	1535.976563	4.851999
362.409424	1171.893188	9054.296875	1636.099487	5.889146
362.776428	1174.168701	9184.001953	1667.956787	6.164774
363.143402	1196.923950	8726.622070	1554.180664	4.744635
363.510284	1206.026001	8291.998047	1558.731689	4.977520
363.877136	1144.586914	7534.249512	1429.027100	4.451568
364.243988	1142.311401	7004.053223	1492.741699	5.978262
364.610779	1244.709839	6760.572266	1476.812988	4.207922
364.977539	1208.301514	6587.632813	1474.537476	4.949239
365.344269	1176.444214	6314.570313	1460.884399	5.535874
365.710938	1128.658325	6294.090332	1472.261963	6.651982
366.077576	1151.413574	6257.682129	1392.618774	4.723708
366.444183	1231.056763	6191.691895	1431.302612	4.036698
366.810760	1142.311401	6148.457031	1383.516602	4.818182
367.177277	1246.985352	6153.008301	1385.792114	2.829313
367.543823	1171.893188	6050.609863	1390.343262	4.477613
367.910248	1212.852539	6209.896484	1367.588013	3.096540
368.276642	1176.444214	6039.232422	1378.965576	4.164717
368.643036	1199.199463	5957.313477	1374.414551	3.682448
369.009399	1149.138062	5955.038086	1353.934937	4.261364
369.375671	1158.240112	5852.639648	1415.373901	5.477458
369.741974	1180.995239	5729.761230	1344.832764	3.601801
370.108215	1162.791138	5873.119141	1424.476074	5.555556
370.474396	1203.750488	5823.057617	1347.108276	3.103448
370.840546	1180.995239	5866.292480	1360.761475	3.836816
371.206665	1160.515625	5993.721680	1492.741699	6.873824
371.572784	1169.617676	6121.150879	1438.129150	5.422795
371.938843	1140.035889	6298.641602	1454.057739	6.087340
372.304840	1121.831787	6303.192383	1394.894287	5.270093
372.670807	1180.995239	6269.059570	1415.373901	4.606441
373.036713	1167.342163	6200.793945	1328.904175	3.209766
373.402649	1165.066650	6107.498047	1369.863525	4.143646
373.768524	1155.964600	6225.824707	1417.649414	5.161578
374.134308	1169.617676	6121.150879	1369.863525	4.044118
374.500122	1140.035889	6250.855469	1310.699951	3.339270
374.865875	1135.484863	6289.539551	1328.904175	3.752760
375.231567	1262.914063	6139.354980	1360.761475	2.006533
375.597260	1140.035889	6350.978516	1272.016113	2.532752
375.962891	1171.893188	6576.254883	1383.516602	3.915789
376.328461	1160.515625	6803.807129	1340.281738	3.185483
376.694031	1167.342163	6926.685547	1308.424438	2.449624
377.059540	1201.474976	7183.819336	1301.597900	1.673640
377.425049	1121.831787	7468.259277	1385.792114	4.159195
377.790497	1246.985352	7538.800293	1372.139038	1.989151
378.155945	1142.311401	8043.965820	1324.353149	2.637654
378.521301	1153.689087	7784.556641	1338.006226	2.779684
378.886597	1219.679199	7636.647949	1408.547363	2.943261
379.251892	1194.648438	7365.860840	1406.271851	3.429203
379.617157	1149.138062	6949.440430	1331.179688	3.138485
379.982422	1135.484863	6872.072754	1353.934937	3.808014
380.347595	1210.577026	6844.766602	1301.597900	1.615510
380.712738	1180.995239	6685.479980	1340.281738	2.893759
381.077820	1174.168701	6844.766602	1319.802124	2.568220
381.442902	1210.577026	6944.889648	1278.842651	1.190476
381.807953	1135.484863	6808.358398	1338.006226	3.569996
382.172974	1169.617676	6883.450195	1319.802124	2.628436
382.537933	1165.066650	6669.551270	1315.250977	2.728400
382.902832	1240.158813	6812.909180	1328.904175	1.592488
383.267700	1185.546387	6851.593262	1306.148926	2.128513
383.632538	1199.199463	6856.144043	1265.189575	1.166533
383.997345	1180.995239	7101.900391	1353.934937	2.920832
384.362152	1155.964600	7172.441406	1367.588013	3.517398
384.726898	1219.679199	7402.269043	1324.353149	1.693044
385.091553	1174.168701	7399.993652	1344.832764	2.741228
385.456238	1158.240112	7568.382324	1435.853638	4.330848
385.820862	1153.689087	7570.657715	1394.894287	3.758865
386.185425	1167.342163	7477.361328	1278.842651	1.767039
386.549988	1231.056763	7440.953125	1317.526489	1.392450
386.914490	1199.199463	7636.647949	1287.944824	1.378580
387.278961	1215.128052	7877.853027	1283.393677	1.024590
387.643372	1133.209351	7773.179199	1340.281738	3.118574
388.007782	1137.760376	7925.639160	1383.516602	3.620516
388.372101	1158.240112	7836.893555	1376.690063	3.270868
388.736450	1194.648438	7855.097656	1331.179688	2.049881
389.100739	1121.831787	7704.913574	1312.975464	2.903559
389.464966	1201.474976	7723.117676	1438.129150	3.628751
389.829163	1171.893188	7745.873047	1335.730713	2.492212
390.193329	1171.893188	7693.535645	1251.536499	1.221215
390.557495	1085.423462	7814.138672	1338.006226	3.753804
390.921570	1158.240112	7759.525879	1265.189575	1.620131
391.285614	1183.270874	7914.261230	1260.638550	1.149425
391.649597	1155.964600	8460.386719	1351.659302	2.679127
392.013550	1119.556274	8910.939453	1326.628662	2.657710
392.377502	1219.679199	9049.746094	1388.067749	2.150538
392.741455	1171.893188	8844.949219	1328.904175	2.046264
393.105316	1105.903076	8892.735352	1342.557251	3.039159
393.469086	1187.821899	8867.704102	1374.414551	2.429629
393.832886	1165.066650	8521.825195	1301.597900	1.855861
394.196655	1171.893188	8703.867188	1353.934937	2.416919
394.560333	1203.750488	8867.704102	1265.189575	0.801663
394.924042	1140.035889	8935.969727	1319.802124	2.305897
395.287659	1160.515625	8979.205078	1301.597900	1.804424
395.651245	1206.026001	8983.755859	1340.281738	1.726156
396.014771	1153.689087	8685.663086	1292.495850	1.842900
396.378296	1210.577026	8285.170898	1301.597900	1.286588
396.741791	1219.679199	8271.518555	1303.873413	1.193933
397.105255	1217.403687	8125.884766	1372.139038	2.239788
397.468628	1169.617676	7859.648926	1322.077637	2.278913
397.832001	1142.311401	7736.770508	1228.781250	1.311250
398.195313	1217.403687	8194.150391	1308.424438	1.304630
398.558624	1210.577026	7984.802734	1301.597900	1.343635
398.921844	1194.648438	8012.108887	1269.740601	1.101468
399.285095	1192.372925	7907.434570	1294.771362	1.524907
399.648254	1226.505737	8050.792480	1292.495850	0.966989
400.011383	1221.954712	8251.038086	1335.730713	1.618646
400.374451	1267.465088	8078.098633	1315.250977	0.701636
400.737549	1160.515625	8198.701172	1360.761475	2.845134
401.100586	1140.035889	8112.231445	1363.036987	3.198435
401.463562	1212.852539	7893.781738	1221.954712	0.136241
401.826508	1144.586914	8428.529297	1351.659302	2.842861
402.189392	1180.995239	7882.404297	1413.098389	3.463498
402.552246	1206.026001	8200.976563	1260.638550	0.780742
402.915070	1158.240112	8355.711914	1344.832764	2.592475
403.277893	1208.301514	8508.171875	1306.148926	1.340399
403.640656	1176.444214	8501.345703	1301.597900	1.708606
404.003326	1144.586914	8753.928711	1242.434326	1.285885
404.366028	1096.801025	9033.817383	1403.996338	3.870413
404.728699	1158.240112	9172.624023	1265.189575	1.334469
405.091248	1190.097412	9427.482422	1344.832764	1.878452
405.453857	1203.750488	9372.870117	1365.312500	1.977716
405.816345	1130.933838	9479.819336	1351.659302	2.643771
406.178833	1160.515625	9204.481445	1358.485962	2.461104
406.541260	1215.128052	9536.708008	1388.067749	2.078207
406.903687	1192.372925	9120.287109	1401.720825	2.640643
407.266052	1306.148926	8826.745117	1272.016113	-0.453858
407.628387	1240.158813	8979.205078	1276.567139	0.470450
407.990662	1208.301514	8954.174805	1319.802124	1.439484
408.352905	1167.342163	8940.521484	1347.108276	2.312646
408.715118	1135.484863	8872.255859	1256.087524	1.558824
409.077332	1206.026001	8869.980469	1315.250977	1.425178
409.439484	1176.444214	8776.683594	1312.975464	1.796407
409.801575	1224.230225	8708.417969	1256.087524	0.425661
410.163605	1217.403687	8935.969727	1319.802124	1.326651
410.525635	1212.852539	9388.798828	1272.016113	0.723630
410.887604	1224.230225	9591.320313	1306.148926	0.979058
411.249573	1260.638550	9466.166992	1276.567139	0.194120
411.611481	1119.556274	9372.870117	1319.802124	2.426248
411.973328	1153.689087	9379.696289	1319.802124	2.019364
412.335144	1203.750488	9427.482422	1297.046875	1.134477
412.696930	1201.474976	9277.297852	1265.189575	0.788955
413.058685	1237.883301	9143.042969	1256.087524	0.230283
413.420410	1133.209351	9193.104492	1312.975464	2.230378
413.782104	1185.546387	9181.726563	1249.260864	0.796811
414.143707	1162.791138	9186.277344	1363.036987	2.495746
414.505310	1192.372925	9270.471680	1308.424438	1.436619
414.866852	1203.750488	9320.533203	1322.077637	1.457808
415.228394	1135.484863	9488.921875	1324.353149	2.260965
415.589874	1142.311401	9620.902344	1392.618774	2.952229
415.951324	1224.230225	9807.495117	1363.036987	1.617179
416.312683	1187.821899	10253.497070	1358.485962	1.882530
416.674072	1228.781250	10267.149414	1287.944824	0.654583
417.035370	1121.831787	10644.886719	1326.628662	2.150538
417.396667	1151.413574	10688.121094	1338.006226	1.956573
417.757935	1140.035889	10669.916992	1351.659302	2.220630
418.119141	1203.750488	11222.868164	1319.802124	1.158302
418.480286	1196.923950	11498.207031	1315.250977	1.148663
418.841400	1137.760376	12032.954102	1353.934937	1.984128
419.202484	1171.893188	12369.731445	1326.628662	1.381833
419.563568	1194.648438	12952.264648	1378.965576	1.567640
419.924591	1130.933838	13537.073242	1438.129150	2.476156
420.285553	1199.199463	13839.717773	1390.343262	1.512152
420.646484	1158.240112	14913.763672	1456.333252	2.167080
421.007355	1142.311401	14695.313477	1406.271851	1.947616
421.368225	1140.035889	16028.768555	1463.159912	2.170259
421.729065	1140.035889	16040.146484	1424.476074	1.908980
422.089874	1112.729614	16411.056641	1419.924927	2.008032
422.450592	1199.199463	16652.261719	1513.221313	2.032101
422.811279	1171.893188	16281.351563	1501.843750	2.183735
423.171936	1183.270874	16040.146484	1360.761475	1.194670
423.532593	1133.209351	16067.452148	1356.210449	1.493220
423.893127	1167.342163	16390.576172	1431.302612	1.733931
424.253723	1149.138062	16395.126953	1413.098389	1.731343
424.614197	1174.168701	16490.699219	1365.312500	1.247958
424.974670	1217.403687	17150.599609	1403.996338	1.171094
425.335052	1162.791138	17489.652344	1385.792114	1.365853
425.695496	1155.964600	16431.535156	1447.231201	1.906748
426.055817	1180.995239	16540.759766	1495.017212	2.044445
426.416168	1140.035889	16602.199219	1431.302612	1.883739
426.776398	1162.791138	15680.614258	1438.129150	1.896552
427.136627	1194.648438	14765.854492	1442.680176	1.827632
427.496826	1178.719727	14777.232422	1344.832764	1.221553
427.856995	1178.719727	14313.025391	1413.098389	1.784477
428.217102	1240.158813	13534.797852	1358.485962	0.962429
428.577179	1208.301514	13518.869141	1481.364014	2.218115
428.937195	1135.484863	13380.062500	1331.179688	1.598216
429.297180	1169.617676	12576.803711	1317.526489	1.296628
429.657135	1160.515625	12686.028320	1319.802124	1.382034
430.017059	1121.831787	13254.908203	1306.148926	1.519130
430.376984	1237.883301	12588.180664	1440.404663	1.784283
430.736786	1158.240112	12306.016602	1381.241089	2.000408
431.096588	1208.301514	12608.661133	1392.618774	1.616767
431.456360	1130.933838	12588.180664	1399.445313	2.343595
431.816071	1219.679199	12492.609375	1358.485962	1.231328
432.175781	1185.546387	12321.945313	1303.873413	1.062525
432.535400	1146.862427	12595.007813	1415.373901	2.345458
432.895020	1169.617676	12201.342773	1374.414551	1.856436
433.254578	1185.546387	12508.538086	1394.894287	1.848874
433.614105	1180.995239	12647.344727	1358.485962	1.547927
433.973602	1194.648438	13111.550781	1344.832764	1.260263
434.333038	1151.413574	13075.142578	1340.281738	1.583969
434.692444	1085.423462	13068.316406	1367.588013	2.354728
435.051819	1137.760376	13480.185547	1365.312500	1.843658
435.411133	1256.087524	13234.428711	1369.863525	0.949848
435.770416	1178.719727	12806.630859	1358.485962	1.545989
436.129669	1096.801025	13234.428711	1328.904175	1.912261
436.488861	1165.066650	12790.702148	1431.302612	2.290076
436.848083	1124.107300	12836.212891	1326.628662	1.729163
437.207184	1185.546387	12861.243164	1363.036987	1.520171
437.566254	1258.363037	13216.224609	1312.975464	0.456707
437.925293	1246.985352	13220.775391	1353.934937	0.893197
438.284363	1203.750488	13512.042969	1363.036987	1.294140
438.643311	1237.883301	13523.419922	1340.281738	0.833488
439.002258	1258.363037	13355.031250	1356.210449	0.808879
439.361145	1171.893188	14201.525391	1369.863525	1.519385
439.719971	1146.862427	14299.373047	1356.210449	1.591696
440.078827	1215.128052	14852.324219	1417.649414	1.485066
440.437592	1165.066650	15132.212891	1347.108276	1.303356
440.796295	1158.240112	15464.439453	1440.404663	1.972324
441.155029	1278.842651	15874.033203	1442.680176	1.122545
441.513672	1201.474976	16463.392578	1415.373901	1.401521
441.872253	1224.230225	16502.076172	1438.129150	1.400059
442.230865	1201.474976	16158.473633	1440.404663	1.597444
442.589386	1196.923950	15976.431641	1429.027100	1.570439
442.947876	1155.964600	16110.687500	1363.036987	1.384662
443.306335	1115.005249	15487.194336	1429.027100	2.184927
443.664764	1155.964600	15179.999023	1390.343262	1.671264
444.023102	1162.791138	15334.734375	1403.996338	1.701991
444.381500	1108.178589	15220.958984	1417.649414	2.192841
444.739777	1174.168701	15216.407227	1351.659302	1.263977
445.098022	1108.178589	15503.123047	1417.649414	2.149858
445.456238	1176.444214	15446.235352	1422.200562	1.722214
445.814423	1183.270874	15723.848633	1342.557251	1.095461
446.172577	1171.893188	16761.486328	1438.129150	1.707780
446.530701	1217.403687	16741.005859	1394.894287	1.143360
446.888733	1135.484863	17293.958984	1419.924927	1.760315
447.246765	1158.240112	18106.318359	1383.516602	1.329216
447.604736	1130.933838	17489.652344	1397.169800	1.627487
447.962677	1171.893188	17537.439453	1429.027100	1.571191
448.320587	1190.097412	17676.246094	1376.690063	1.131815
448.678436	1165.066650	17619.357422	1449.506714	1.728668
449.036255	1142.311401	17341.744141	1399.445313	1.587302
449.394043	1258.363037	16317.759766	1415.373901	1.042611
449.751770	1146.862427	16360.994141	1403.996338	1.690099
450.109467	1119.556274	16067.452148	1406.271851	1.918100
450.467163	1210.577026	15967.329102	1381.241089	1.156515
450.824768	1167.342163	15776.185547	1424.476074	1.760125
451.182343	1137.760376	15737.501953	1365.312500	1.558604
451.539886	1196.923950	14970.651367	1360.761475	1.189493
451.897369	1219.679199	15352.938477	1372.139038	1.078731
452.254822	1183.270874	15321.082031	1356.210449	1.223241
452.612274	1142.311401	15389.347656	1353.934937	1.485386
452.969635	1130.933838	15209.581055	1356.210449	1.600130
453.326965	1206.026001	15088.978516	1406.271851	1.442387
453.684326	1149.138062	14970.651367	1365.312500	1.564043
454.041534	1121.831787	14804.538086	1394.894287	1.995676
454.398773	1146.862427	14479.138672	1331.179688	1.382489
454.755951	1217.403687	14308.474609	1294.771362	0.590996
455.113098	1217.403687	13484.736328	1340.281738	1.001669
455.470215	1217.403687	13907.983398	1312.975464	0.753092
455.827240	1224.230225	13741.870117	1488.190552	2.108707
456.184265	1233.332275	13871.575195	1347.108276	0.900252
456.541260	1190.097412	13600.788086	1301.597900	0.898423
456.898193	1133.209351	13475.633789	1299.322388	1.345870
457.255096	1246.985352	13771.452148	1356.210449	0.872094
457.611969	1119.556274	13582.583984	1365.312500	1.971882
457.968781	1180.995239	14010.381836	1365.312500	1.436680
458.325531	1108.178589	14055.891602	1358.485962	1.933217
458.682312	1208.301514	14720.343750	1310.699951	0.757831
459.039001	1158.240112	15466.714844	1299.322388	0.986005
459.395630	1133.209351	16106.136719	1306.148926	1.155015
459.752289	1212.852539	17375.876953	1474.537476	1.619035
460.108856	1192.372925	18224.646484	1435.853638	1.429526
460.465363	1064.943726	19285.039063	1463.159912	2.185588
460.821899	1190.097412	19087.068359	1419.924927	1.284170
461.178345	1210.577026	18875.445313	1392.618774	1.030530
461.534760	1185.546387	18288.361328	1372.139038	1.091006
461.891144	1133.209351	17541.990234	1440.404663	1.872140
462.247467	1194.648438	16738.730469	1367.588013	1.112575
462.603760	1144.586914	16445.189453	1415.373901	1.769780
462.960052	1169.617676	15714.747070	1408.547363	1.642678
463.316254	1208.301514	15223.234375	1399.445313	1.363858
463.672424	1196.923950	14802.262695	1328.904175	0.970062
464.028564	1192.372925	14435.904297	1397.169800	1.546392
464.384644	1144.586914	14570.160156	1392.618774	1.847458
464.740723	1146.862427	14699.864258	1312.975464	1.225655
465.096741	1149.138062	14308.474609	1367.588013	1.660038
465.452698	1192.372925	14203.800781	1374.414551	1.399090
465.808655	1180.995239	14576.986328	1351.659302	1.273993
466.164520	1126.382813	14367.638672	1328.904175	1.529472
466.520355	1201.474976	15050.294922	1340.281738	1.002300
466.876190	1167.342163	15191.376953	1338.006226	1.216940
467.231964	1246.985352	14979.753906	1303.873413	0.414250
467.587677	1160.515625	15769.359375	1331.179688	1.168224
467.943390	1124.107300	16033.319336	1383.516602	1.739926
468.299011	1162.791138	15257.367188	1347.108276	1.307717
468.654633	1146.862427	15202.754883	1381.241089	1.667476
469.010223	1190.097412	15195.927734	1353.934937	1.169781
469.365723	1171.893188	14793.161133	1324.353149	1.119279
469.721191	1221.954712	14895.559570	1342.557251	0.882010
470.076660	1215.128052	14287.995117	1326.628662	0.852916
470.432068	1217.403687	14611.119141	1378.965576	1.206251
470.787445	1244.709839	14272.066406	1390.343262	1.117905
471.142792	1158.240112	14281.168945	1342.557251	1.404543
471.498016	1144.586914	14488.241211	1324.353149	1.347204
471.853271	1224.230225	14627.047852	1369.863525	1.086587
472.208496	1233.332275	14718.068359	1403.996338	1.265609
472.563660	1185.546387	14681.660156	1285.669312	0.741865
472.918762	1199.199463	15248.264648	1372.139038	1.230969
473.273865	1176.444214	15484.918945	1347.108276	1.192748
473.628876	1187.821899	15639.654297	1356.210449	1.165171
473.983917	1228.781250	15748.879883	1360.761475	0.908949
474.338837	1199.199463	15801.216797	1415.373901	1.480442
474.693787	1117.280762	15789.838867	1424.476074	2.093673
475.048645	1190.097412	15250.540039	1397.169800	1.472730
475.403503	1110.454102	16067.452148	1338.006226	1.521376
475.758270	1178.719727	16017.390625	1333.455200	1.042785
476.113037	1215.128052	15985.533203	1328.904175	0.770298
476.467773	1203.750488	16144.820313	1406.271851	1.355468
476.822418	1176.444214	16893.466797	1369.863525	1.230636
477.177063	1183.270874	16745.556641	1378.965576	1.257493
477.531647	1253.812012	17255.273438	1408.547363	0.967008
477.886200	1194.648438	17530.611328	1435.853638	1.476529
478.240723	1208.301514	18006.195313	1372.139038	0.975346
478.595184	1203.750488	18176.859375	1424.476074	1.300443
478.949585	1194.648438	18320.218750	1417.649414	1.302152
479.303986	1212.852539	18559.148438	1367.588013	0.892038
479.658325	1219.679199	18579.626953	1385.792114	0.956875
480.012634	1142.311401	19077.966797	1363.036987	1.230652
480.366913	1155.964600	19571.753906	1372.139038	1.173854
480.721130	1194.648438	19744.693359	1403.996338	1.128557
481.075317	1176.444214	20534.298828	1376.690063	1.034442
481.429474	1165.066650	21512.773438	1422.200562	1.263700
481.783569	1158.240112	22523.105469	1476.812988	1.491106
482.137604	1135.484863	23280.853516	1408.547363	1.233046
482.491669	1226.505737	25210.494141	1495.017212	1.119545
482.845612	1165.066650	27838.720703	1611.068726	1.672070
483.199554	1196.923950	31686.626953	1617.895264	1.380700
483.553436	1196.923950	37134.222656	1615.619751	1.165073
483.907318	1228.781250	43544.367188	1718.018188	1.156163
484.261139	1196.923950	49763.363281	1806.763550	1.255681
484.614899	1149.138062	52830.765625	1931.917114	1.514618
484.968628	1130.933838	52482.613281	1820.416626	1.342668
485.322357	1165.066650	49918.101563	1781.732788	1.264877
485.675964	1183.270874	46502.542969	1809.039063	1.380799
486.029572	1149.138062	42233.667969	1724.844727	1.401273
486.383148	1203.750488	39669.152344	1743.048950	1.402035
486.736694	1153.689087	37177.457031	1654.303589	1.389678
487.090149	1160.515625	37480.101563	1595.140137	1.196667
487.443604	1256.087524	38369.832031	1658.854614	1.085223
487.796997	1194.648438	39826.164063	1649.752563	1.178064
488.150360	1235.607788	41298.425781	1658.854614	1.056458
488.503693	1190.097412	42256.421875	1754.426514	1.374189
488.856964	1185.546387	41266.570313	1622.446289	1.090042
489.210175	1149.138062	39098.000000	1636.099487	1.283204
489.563416	1167.342163	37081.886719	1626.997314	1.279858
489.916565	1174.168701	34701.691406	1597.415649	1.262387
490.269653	1199.199463	32696.958984	1613.344238	1.314839
490.622772	1155.964600	31570.576172	1488.190552	1.092324
490.975769	1240.158813	31952.863281	1513.221313	0.889086
491.328735	1215.128052	32678.753906	1583.762451	1.171621
491.681732	1112.729614	34417.253906	1622.446289	1.530473
492.034607	1167.342163	36895.292969	1663.405762	1.388447
492.387482	1121.831787	37532.441406	1681.609863	1.537404
492.740326	1162.791138	36861.160156	1677.058838	1.440592
493.093079	1169.617676	35413.929688	1574.660400	1.182803
493.445862	1267.465088	32062.087891	1647.477051	1.234020
493.798523	1169.617676	29852.556641	1581.486938	1.435938
494.151215	1192.372925	27474.638672	1572.384888	1.445887
494.503815	1135.484863	25519.964844	1456.333252	1.315789
494.856384	1185.546387	23724.580078	1479.088501	1.302372
495.208923	1117.280762	22796.167969	1469.986450	1.626955
495.561432	1101.352051	22386.574219	1463.159912	1.699808
495.913879	1144.586914	22047.521484	1326.628662	0.870891
496.266296	1137.760376	22159.021484	1474.537476	1.602078
496.618683	1142.311401	22281.900391	1497.292725	1.679225
496.970978	1146.862427	22994.138672	1431.302612	1.301948
497.323273	1165.066650	22620.953125	1460.884399	1.378725
497.675507	1240.158813	22866.708984	1454.057739	0.989057
498.027710	1233.332275	22857.607422	1435.853638	0.936546
498.379852	1135.484863	22743.830078	1454.057739	1.474305
498.731995	1219.679199	22691.494141	1426.751587	0.964392
499.084076	1146.862427	22184.052734	1401.720825	1.211466
499.436096	1158.240112	22045.246094	1426.751587	1.285543
499.788086	1221.954712	21590.140625	1472.261963	1.228913
500.140106	1262.914063	21180.546875	1488.190552	1.131040
500.491943	1199.199463	20666.279297	1378.965576	0.923436
500.843842	1146.862427	20434.177734	1433.578125	1.486551
501.195679	1228.781250	19922.185547	1488.190552	1.387705
501.547455	1178.719727	19580.857422	1419.924927	1.310746
501.899231	1151.413574	19380.611328	1317.526489	0.911246
502.250885	1149.138062	19155.333984	1287.944824	0.770883
502.602600	1178.719727	19191.742188	1328.904175	0.833755
502.954193	1219.679199	19139.406250	1369.863525	0.838095
503.305786	1137.760376	19159.884766	1344.832764	1.148990
503.657379	1183.270874	19027.904297	1388.067749	1.147666
504.008820	1176.444214	19476.181641	1417.649414	1.318080
504.360291	1212.852539	19430.671875	1403.996338	1.049213
504.711700	1246.985352	19756.072266	1444.955688	1.069585
505.063080	1221.954712	19765.173828	1426.751587	1.104430
505.414368	1137.760376	19478.458984	1440.404663	1.650124
505.765656	1199.199463	19423.845703	1433.578125	1.286053
506.116943	1199.199463	19564.927734	1399.445313	1.090323
506.468109	1144.586914	19216.773438	1408.547363	1.460589
506.819305	1160.515625	19278.212891	1372.139038	1.168048
507.170410	1210.577026	19244.080078	1324.353149	0.630915
507.521484	1178.719727	19264.558594	1413.098389	1.295924
507.872559	1149.138062	19182.640625	1517.772339	2.044163
508.223480	1124.107300	19346.478516	1406.271851	1.548451
508.574493	1199.199463	19619.541016	1467.710938	1.457690
508.925385	1076.321289	20045.062500	1465.435425	2.051344
509.276245	1130.933838	20349.982422	1419.924927	1.503670
509.627045	1155.964600	20543.402344	1417.649414	1.349765
509.977814	1187.821899	21037.189453	1422.200562	1.180787
510.328613	1165.066650	20773.228516	1506.394775	1.740745
510.679260	1135.484863	20950.720703	1458.608887	1.630685
511.029999	1185.546387	21098.628906	1442.680176	1.291281
511.380585	1233.332275	21153.242188	1554.180664	1.610692
511.731140	1199.199463	21294.324219	1483.639526	1.415468
512.081726	1171.893188	21660.681641	1463.159912	1.421591
512.432129	1176.444214	21885.958984	1463.159912	1.384464
512.782654	1144.586914	22195.429688	1431.302612	1.362015
513.133057	1158.240112	21965.601563	1606.517700	2.154418
513.483398	1158.240112	22263.695313	1510.945801	1.671159
513.833801	1219.679199	22015.664063	1424.476074	0.984791
514.183960	1133.209351	21537.804688	1433.578125	1.472064
514.534302	1190.097412	21455.884766	1463.159912	1.347406
514.884460	1130.933838	21278.394531	1476.812988	1.716738
515.234619	1217.403687	21201.027344	1394.894287	0.888180
515.584717	1146.862427	21419.476563	1456.333252	1.526546
515.934753	1121.831787	21417.201172	1513.221313	1.928467
516.284851	1115.005249	21556.007813	1440.404663	1.591896
516.634766	1165.066650	21881.408203	1424.476074	1.252197
516.984741	1196.923950	21751.703125	1444.955688	1.206686
517.334595	1153.689087	22805.269531	1451.782227	1.376773
517.684448	1160.515625	23417.384766	1538.252075	1.697168
518.034363	1162.791138	24336.695313	1485.915039	1.394344
518.384094	1246.985352	25142.228516	1545.078613	1.247501
518.733826	1183.270874	26377.837891	1551.905151	1.463150
519.083496	1146.862427	27121.931641	1586.037964	1.690758
519.433167	1146.862427	27256.187500	1458.608887	1.194004
519.782776	1203.750488	27085.523438	1570.109375	1.415509
520.132324	1171.893188	26361.908203	1570.109375	1.580849
520.481873	1180.995239	26214.000000	1545.078613	1.454413
520.831299	1176.444214	25224.148438	1570.109375	1.637018
521.180786	1192.372925	24675.748047	1520.047852	1.395349
521.530151	1208.301514	24534.666016	1467.710938	1.112087
521.879517	1192.372925	24373.103516	1517.772339	1.403750
522.228882	1221.954712	23845.181641	1524.598877	1.337759
522.578064	1153.689087	23581.222656	1481.364014	1.461039
522.927307	1167.342163	23904.345703	1476.812988	1.361089
523.276489	1224.230225	24136.449219	1447.231201	0.973284
523.625610	1146.862427	24090.939453	1444.955688	1.299217
523.974792	1208.301514	24700.777344	1565.558350	1.520729
524.323792	1196.923950	24976.117188	1535.976563	1.425837
524.672852	1221.954712	25390.261719	1545.078613	1.336974
525.021790	1206.026001	26350.531250	1583.762451	1.502262
525.370728	1149.138062	27674.884766	1597.415649	1.689972
525.719604	1149.138062	29035.644531	1513.221313	1.305589
526.068420	1201.474976	30826.480469	1688.436401	1.643751
526.417297	1151.413574	31848.189453	1738.497925	1.912528
526.765991	1105.903076	33004.152344	1718.018188	1.918961
527.114746	1185.546387	33698.187500	1711.191650	1.616741
527.463379	1155.964600	35099.910156	1743.048950	1.729570
527.812012	1183.270874	37138.773438	1752.151001	1.582178
528.160706	1112.729614	39696.460938	1777.181763	1.722104
528.509155	1158.240112	44566.074219	1815.865601	1.514993
528.857727	1171.893188	49729.230469	1900.059814	1.499602
529.206177	1219.679199	52525.847656	1979.703125	1.481350
529.554565	1124.107300	53058.320313	1963.774414	1.616790
529.902893	1176.444214	51515.515625	2043.417725	1.722268
530.251221	1265.189575	48841.777344	1931.917114	1.401377
530.599548	1226.505737	45178.191406	1859.100464	1.439296
530.947876	1190.097412	41475.917969	1809.039063	1.536376
531.296021	1176.444214	38005.750000	1788.559326	1.662033
531.644165	1155.964600	36187.605469	1681.609863	1.500487
531.992249	1219.679199	34369.464844	1713.467163	1.489566
532.340454	1194.648438	32985.949219	1708.916138	1.617637
532.688354	1206.026001	33568.484375	1626.997314	1.300801
533.036438	1176.444214	33825.617188	1708.916138	1.630889
533.384338	1151.413574	36239.945313	1747.599976	1.699092
533.732239	1183.270874	38246.953125	1711.191650	1.424361
534.080139	1144.586914	39032.007813	1818.141113	1.777778
534.427917	1217.403687	37928.378906	1799.937012	1.586810
534.775757	1180.995239	36888.468750	1827.243164	1.809839
535.123474	1162.791138	35409.378906	1718.018188	1.621262
535.471191	1199.199463	33074.695313	1642.926025	1.392062
535.818848	1203.750488	31789.025391	1606.517700	1.316866
536.166382	1167.342163	30869.714844	1640.650513	1.593503
536.513977	1165.066650	30935.705078	1738.497925	1.926164
536.861511	1183.270874	30949.359375	1704.365112	1.750631
537.208984	1155.964600	31149.603516	1720.293701	1.881496
537.556396	1171.893188	31088.166016	1658.854614	1.627748
537.903809	1126.382813	30225.742188	1706.640625	1.994057
538.251160	1128.658325	29634.107422	1729.395752	2.107448
538.598389	1167.342163	28439.458984	1631.548462	1.702128
538.945740	1162.791138	27547.455078	1613.344238	1.707633
539.292969	1144.586914	27131.035156	1631.548462	1.873906
539.640137	1099.076538	26673.654297	1654.303589	2.171012
539.987244	1153.689087	26962.646484	1590.588989	1.692823
540.334351	1203.750488	28018.488281	1613.344238	1.527495
540.681458	1180.995239	29351.943359	1686.160889	1.793215
541.028442	1140.035889	31964.240234	1697.538574	1.808652
541.375366	1212.852539	34974.753906	1697.538574	1.435601
541.722290	1194.648438	37782.746094	1758.977539	1.542384
542.069153	1190.097412	39619.093750	1909.161987	1.871151
542.416016	1137.760376	39762.449219	1870.478149	1.897019
542.762756	1162.791138	38975.121094	1888.682251	1.919721
543.109558	1130.933838	37664.421875	1820.416626	1.887262
543.456299	1228.781250	36057.902344	1745.324463	1.483078
543.802917	1151.413574	34806.367188	1809.039063	1.954023
544.149536	1178.719727	32890.378906	1727.120239	1.729334
544.496094	1130.933838	30635.335938	1695.262939	1.912695
544.842651	1174.168701	29094.808594	1727.120239	1.980440
545.189148	1233.332275	27988.906250	1695.262939	1.726484
545.535583	1258.363037	26894.380859	1601.966675	1.340316
545.882019	1208.301514	26364.183594	1583.762451	1.492537
546.228333	1176.444214	25861.292969	1677.058838	2.028024
546.574707	1135.484863	25831.712891	1722.569214	2.377223
546.920898	1155.964600	25783.925781	1606.517700	1.829437
547.267212	1146.862427	25929.558594	1663.405762	2.084290
547.613342	1153.689087	25906.804688	1656.579102	2.031623
547.959473	1237.883301	25501.761719	1620.170776	1.575541
548.305664	1240.158813	24436.818359	1636.099487	1.706887
548.651611	1194.648438	23826.978516	1604.242188	1.809773
548.997742	1180.995239	22616.400391	1561.007324	1.772824
549.343689	1226.505737	22204.531250	1588.313477	1.724699
549.689575	1151.413574	21055.394531	1558.731689	2.046415
550.035522	1183.270874	20070.093750	1574.660400	2.072289
550.381287	1171.893188	19715.111328	1545.078613	2.012517
550.727173	1206.026001	19341.927734	1599.691162	2.170640
551.072876	1185.546387	19137.130859	1586.037964	2.230954
551.418640	1203.750488	18893.648438	1624.721802	2.379727
551.764282	1183.270874	18672.923828	1617.895264	2.485037
552.109863	1178.719727	18814.005859	1624.721802	2.529032
552.455505	1078.596802	18759.392578	1592.864502	2.908623
552.801025	1158.240112	19321.447266	1549.629639	2.154848
553.146545	1226.505737	19107.548828	1658.854614	2.417917
553.491943	1210.577026	19692.357422	1592.864502	2.068456
553.837341	1199.199463	19826.613281	1617.895264	2.247740
554.182800	1201.474976	19148.507813	1692.987427	2.738683
554.528015	1187.821899	19032.455078	1642.926025	2.550370
554.873352	1144.586914	18600.107422	1570.109375	2.437753
555.218628	1142.311401	18381.656250	1620.170776	2.771911
555.563721	1128.658325	18236.023438	1727.120239	3.498271
555.908875	1174.168701	18024.400391	1583.762451	2.430790
556.254028	1176.444214	17655.765625	1663.405762	2.954985
556.599121	1176.444214	17594.326172	1579.211426	2.453223
556.944031	1144.586914	17175.630859	1604.242188	2.867282
557.289063	1183.270874	17212.039063	1656.579102	2.952867
557.633972	1185.546387	17016.343750	1656.579102	2.975420
557.978882	1074.045776	16970.833984	1597.415649	3.292300
558.323792	1130.933838	16863.884766	1692.987427	3.572461
558.668518	1169.617676	16645.435547	1656.579102	3.146596
559.013306	1231.056763	16727.353516	1640.650513	2.643172
559.358032	1203.750488	16852.507813	1665.681274	2.951869
559.702637	1178.719727	16777.414063	1647.477051	3.005106
560.047363	1249.260864	16556.689453	1663.405762	2.705516
560.391846	1267.465088	16590.822266	1679.334351	2.687853
560.736450	1180.995239	16474.771484	1661.130127	3.139414
561.080933	1221.954712	16825.201172	1658.854614	2.800058
561.425354	1221.954712	16806.996094	1626.997314	2.598919
561.769775	1210.577026	16863.884766	1765.804199	3.547028
562.114136	1176.444214	17011.792969	1656.579102	3.032045
562.458496	1174.168701	16895.742188	1752.151001	3.676364
562.802673	1187.821899	16777.414063	1797.661377	3.911837
563.146912	1133.209351	16857.058594	1836.345337	4.471780
563.491150	1155.964600	16595.373047	1779.457275	4.038320
563.835266	1174.168701	16527.107422	1788.559326	4.001779
564.179443	1196.923950	16784.242188	1793.110352	3.824817
564.523438	1146.862427	16602.199219	1770.355225	4.034159
564.867493	1126.382813	16836.578125	1802.212524	4.301854
565.211426	1135.484863	16968.558594	1897.784302	4.814601
565.555359	1158.240112	17159.703125	1865.927002	4.422639
565.899231	1144.586914	17673.970703	1813.590088	4.047357
566.243042	1144.586914	18040.328125	1875.029175	4.323233
566.586914	1201.474976	18263.330078	1900.059814	4.094425
566.930603	1169.617676	18775.322266	2029.764526	4.885614
567.274292	1142.311401	18980.119141	2022.937988	4.936854
567.617981	1162.791138	18841.312500	2002.458252	4.749646
567.961609	1187.821899	18547.769531	2068.448486	5.072749
568.305237	1124.107300	18140.451172	1954.672363	4.880984
568.648682	1146.862427	17892.419922	1966.049927	4.891969
568.992188	1169.617676	17758.164063	2011.560425	5.075446
569.335632	1167.342163	17318.988281	2000.182739	5.156382
569.679016	1174.168701	17325.814453	2043.417725	5.381799
570.022461	1169.617676	17166.529297	2059.346436	5.561878
570.365662	1146.862427	17633.009766	2036.591064	5.396826
570.708984	1190.097412	17466.898438	2191.326416	6.151264
571.052185	1101.352051	17587.500000	2084.376953	5.962732
571.395386	1196.923950	17539.714844	2125.336426	5.680869
571.738525	1165.066650	18210.992188	2305.102539	6.688025
572.081604	1187.821899	18606.933594	2259.592041	6.152841
572.424683	1210.577026	18732.087891	2239.112549	5.870130
572.767578	1208.301514	19298.691406	2412.052002	6.654088
573.110596	1185.546387	18989.220703	2425.705078	6.965746
573.453552	1221.954712	19037.007813	2416.603027	6.705837
573.796387	1137.760376	18784.423828	2416.603027	7.246937
574.139282	1144.586914	18402.136719	2525.828125	8.003692
574.481995	1224.230225	18204.166016	2534.930176	7.719110
574.824768	1165.066650	18240.574219	2475.766602	7.675906
575.167480	1119.556274	18261.054688	2598.644775	8.628700
575.510132	1199.199463	17746.787109	2468.940186	7.673268
575.852722	1146.862427	18113.146484	2569.062988	8.382511
576.195251	1210.577026	17883.318359	2575.889648	8.188890
576.537842	1165.066650	17617.082031	2564.511963	8.506224
576.880188	1171.893188	17387.253906	2669.185791	9.233791
577.222717	1201.474976	17187.007813	2578.165039	8.612100
577.565063	1192.372925	16606.750000	2662.359375	9.536464
577.907410	1158.240112	16137.993164	2676.012451	10.132158
578.249756	1121.831787	15962.778320	2632.777588	10.180926
578.591919	1151.413574	15769.359375	2650.981689	10.258406
578.934204	1224.230225	15362.041016	2732.900391	10.671172
579.276306	1174.168701	15491.746094	2637.328613	10.219326
579.618469	1137.760376	14895.559570	2664.634766	11.098247
579.960571	1151.413574	14904.661133	2637.328613	10.804103
580.302551	1165.066650	14340.332031	2689.665527	11.571674
580.644531	1301.597900	14276.617188	2735.176025	11.048755
580.986511	1187.821899	14178.770508	2782.961914	12.278857
581.328369	1149.138062	14051.340820	2767.033203	12.539681
581.670227	1176.444214	13921.636719	2789.788574	12.658454
582.012024	1112.729614	13880.676758	2876.258301	13.812155
582.353821	1215.128052	13882.952148	2933.146240	13.562062
582.695496	1151.413574	13616.716797	2885.360352	13.910186
583.037231	1190.097412	13646.297852	2830.747803	13.171355
583.378845	1146.862427	13744.145508	2928.595215	14.143786
583.720398	1137.760376	13578.032227	2939.972900	14.486923
584.062012	1158.240112	13471.083008	3008.238525	15.024949
584.403442	1108.178589	13373.235352	3056.024414	15.881263
584.744934	1146.862427	13327.725586	3112.912354	16.140482
585.086365	1133.209351	13593.960938	3176.626953	16.398830
585.427734	1158.240112	13345.929688	3319.984863	17.737116
585.768982	1203.750488	13375.511719	3288.127441	17.124695
586.110291	1165.066650	13227.602539	3326.811523	17.921146
586.451599	1192.372925	13471.083008	3349.566650	17.568571
586.792725	1183.270874	13225.327148	3395.077148	18.367346
587.133850	1176.444214	13302.694336	3322.260254	17.695627
587.474915	1178.719727	13380.062500	3513.404053	19.134651
587.815979	1192.372925	13304.969727	3506.577637	19.105768
588.157043	1235.607788	13350.480469	3417.832275	18.012774
588.497925	1133.209351	13361.858398	3549.812500	19.761814
588.838867	1199.199463	13393.715820	3699.996826	20.507557
589.179749	1199.199463	13286.765625	3670.415039	20.444277
589.520569	1219.679199	13578.032227	3797.844238	20.861719
589.861450	1212.852539	13985.350586	3888.864990	20.951363
590.202087	1208.301514	13871.575195	3929.824463	21.491465
590.542847	1185.546387	13985.350586	4118.692871	22.915556
590.883484	1215.128052	13958.044922	4091.386475	22.571428
591.224121	1242.434326	13755.523438	4143.723145	23.186031
591.564636	1149.138062	13980.799805	4086.835449	22.894129
591.905151	1187.821899	13509.766602	4105.039551	23.674980
592.245667	1251.536499	13425.572266	4116.416992	23.532707
592.585999	1180.995239	13553.001953	4271.152344	24.977009
592.926453	1235.607788	13641.747070	4227.917480	24.119587
593.266724	1160.515625	13482.460938	4177.855957	24.487532
593.607056	1112.729614	13357.306641	4305.285156	26.073221
593.947388	1155.964600	13500.665039	4378.102051	26.101383
594.287476	1196.923950	13700.911133	4546.490723	26.787991
594.627686	1187.821899	13675.879883	4642.062500	27.660353
594.967773	1178.719727	13933.013672	4546.490723	26.404997
595.307861	1096.801025	13864.748047	4592.000977	27.374800
595.647888	1194.648438	14067.269531	4630.685059	26.692595
595.987854	1201.474976	14151.463867	4855.961426	28.219995
596.327820	1196.923950	14481.414063	4942.431152	28.194588
596.667725	1199.199463	14840.946289	5072.135742	28.390326
597.007568	1196.923950	15391.623047	5326.994141	29.095863
597.347351	1155.964600	15600.970703	5479.454102	29.930685
597.687073	1146.862427	16051.523438	5572.750488	29.694658
598.026794	1178.719727	16106.136719	5597.781250	29.603659
598.366455	1190.097412	15648.756836	5679.699707	31.051306
598.706116	1162.791138	15129.937500	5588.679199	31.687849
599.045654	1215.128052	14825.017578	5593.229980	32.168533
599.385193	1196.923950	14226.555664	5188.187500	30.632206
599.724731	1146.862427	13632.645508	5142.677246	32.002918
600.064087	1151.413574	13466.532227	5235.973145	33.167034
600.403564	1149.138062	13061.489258	5031.176270	32.588345
600.742920	1206.026001	13097.897461	5006.145996	31.955612
601.082153	1130.933838	12827.110352	5154.054688	34.396889
601.421387	1274.291626	12756.569336	5012.972168	32.560444
601.760620	1192.372925	12742.916016	5063.033691	33.510639
602.099854	1212.852539	12854.416992	5151.779297	33.835030
602.438843	1201.474976	12699.681641	5197.289551	34.751629
602.778015	1169.617676	13177.541016	5188.187500	33.465984
603.117065	1187.821899	13077.417969	5370.229004	35.177036
603.456055	1244.709839	13725.941406	5606.883301	34.949863
603.794983	1099.076538	13860.197266	5641.016113	35.592010
604.133850	1178.719727	14740.824219	5980.068848	35.402683
604.472778	1126.382813	15220.958984	6096.120117	35.259926
604.811584	1119.556274	15437.132813	6250.855469	35.839161
605.150330	1153.689087	15899.063477	6410.142090	35.648151
605.489075	1165.066650	16320.035156	6594.459473	35.825825
605.827698	1162.791138	15924.094727	6480.683105	36.025898
606.166382	1215.128052	15960.502930	6401.040039	35.169754
606.504883	1142.311401	15205.030273	6357.805176	37.087379
606.843445	1103.627563	14829.569336	6187.141113	37.035812
607.181946	1151.413574	14465.485352	5927.731445	35.874207
607.520386	1171.893188	13930.738281	5970.966797	37.613701
607.858826	1133.209351	13170.714844	5654.669434	37.561436
608.197083	1187.821899	13598.512695	5588.679199	35.460213
608.535461	1178.719727	13261.735352	5709.281738	37.495293
608.873718	1117.280762	13211.673828	5643.291504	37.422390
609.211914	1142.311401	13343.654297	5911.803223	39.089893
609.550171	1185.546387	13832.890625	5902.701172	37.297592
609.888245	1144.586914	14456.383789	6153.008301	37.623932
610.226318	1210.577026	14447.281250	6203.069824	37.717037
610.564392	1199.199463	14360.811523	6241.753418	38.312584
610.902344	1235.607788	14488.241211	6316.845703	38.341343
611.240295	1160.515625	14324.403320	6300.916992	39.049263
611.578247	1160.515625	14001.279297	6246.304688	39.606594
611.916138	1160.515625	13548.451172	6118.875488	40.025715
612.253845	1203.750488	13188.918945	5932.282715	39.453201
612.591675	1158.240112	12831.662109	5836.710938	40.077972
612.929382	1151.413574	12629.140625	5779.822754	40.325138
613.267090	1155.964600	12212.719727	5577.301270	39.987656
613.604736	1180.995239	11991.994141	5586.403809	40.749321
613.942261	1151.413574	11910.076172	5415.739746	39.636211
614.279785	1203.750488	11807.677734	5461.250000	40.150211
614.617310	1233.332275	11630.186523	5367.953613	39.768002
614.954712	1103.627563	11666.594727	5377.055664	40.456703
615.292175	1128.658325	11495.930664	5370.229004	40.913082
615.629517	1121.831787	11457.247070	5322.443359	40.642891
615.966797	1194.648438	11454.971680	5315.616699	40.164116
616.304138	1146.862427	11236.521484	5304.238770	41.204330
616.641296	1187.821899	11436.767578	5270.105957	39.831261
616.978516	1149.138062	11231.970703	5224.595703	40.419765
617.315552	1199.199463	11263.828125	5065.309082	38.412838
617.652771	1140.035889	11277.481445	5172.258789	39.775532
617.989685	1174.168701	11607.431641	5249.626465	39.062160
618.326721	1199.199463	11461.797852	5144.952637	38.447895
618.663696	1180.995239	11354.848633	5254.177734	40.035789
619.000549	1221.954712	11307.062500	5229.146973	39.733761
619.337463	1153.689087	11484.553711	5247.351074	39.625553
619.674194	1196.923950	11165.980469	5129.023926	39.443050
620.010986	1210.577026	11352.573242	5279.208496	40.116673
620.347778	1192.372925	11284.307617	5245.075684	40.157837
620.684387	1153.689087	11245.624023	5092.615723	39.030441
621.020996	1219.679199	11097.714844	5172.258789	40.013824
621.357605	1165.066650	11191.011719	5147.228027	39.718563
621.694214	1203.750488	10879.264648	5156.330078	40.851368
622.030579	1215.128052	10890.642578	5001.594727	39.134525
622.367065	1210.577026	10895.193359	5008.421387	39.215225
622.703430	1185.546387	10710.875977	5042.554199	40.492119
623.039795	1196.923950	10808.723633	5085.789063	40.459282
623.376160	1153.689087	10804.172852	5049.380859	40.367844
623.712402	1221.954712	10697.223633	4981.115234	39.673393
624.048645	1155.964600	10888.367188	4849.134766	37.947159
624.384766	1137.760376	10692.671875	4978.839355	40.200050
624.720886	1187.821899	10779.141602	4919.675781	38.908661
625.057007	1176.444214	10902.020508	4997.043457	39.284039
625.392944	1219.679199	10899.745117	5056.207031	39.633282
625.729004	1203.750488	10913.397461	4953.808594	38.621983
626.064941	1158.240112	11034.000000	5110.819824	40.023045
626.400818	1201.474976	11286.583008	5063.033691	38.289707
626.736633	1128.658325	11548.268555	5224.595703	39.309891
627.072449	1190.097412	11712.105469	5306.514648	39.121971
627.408264	1142.311401	11973.790039	5370.229004	39.033615
627.743896	1262.914063	11937.381836	5377.055664	38.541889
628.079590	1174.168701	12060.259766	5390.708984	38.733280
628.415161	1176.444214	11750.789063	5458.974609	40.499249
628.750793	1194.648438	11520.961914	5356.576172	40.304100
629.086365	1224.230225	11414.012695	5199.564941	39.012951
629.421753	1153.689087	11188.735352	5333.820801	41.655334
629.757263	1169.617676	11225.144531	5060.758301	38.696533
630.092651	1162.791138	10776.866211	4921.951660	39.100594
630.427917	1151.413574	10863.335938	4890.094238	38.495785
630.763184	1135.484863	10635.784180	4994.768066	40.622757
631.098511	1146.862427	10501.528320	4962.910645	40.792995
631.433716	1169.617676	10499.252930	4846.859375	39.414639
631.768799	1203.750488	10560.692383	4896.920898	39.469845
632.103943	1174.168701	10116.965820	4915.125000	41.832062
632.438965	1162.791138	10025.944336	4778.593750	40.795895
632.773987	1190.097412	9930.373047	4676.195313	39.885448
633.109070	1142.311401	10005.464844	4619.307129	39.229782
633.443848	1185.546387	9725.576172	4635.235840	40.394352
633.778870	1133.209351	9971.332031	4619.307129	39.443871
634.113708	1228.781250	9900.791016	4644.337891	39.385986
634.448425	1115.005249	10107.863281	4607.929688	38.841091
634.783264	1155.964600	10151.098633	4605.654297	38.350620
635.117859	1180.995239	10157.924805	4598.827637	38.073513
635.452576	1196.923950	10041.873047	4673.919922	39.310528
635.787170	1151.413574	9957.678711	4489.602539	37.906975
636.121704	1190.097412	9773.362305	4482.775879	38.361610
636.456177	1224.230225	9702.820313	4460.020996	38.164257
636.790588	1146.862427	9384.248047	4409.959473	39.613262
637.125122	1124.107300	9513.952148	4371.275391	38.703552
637.459412	1160.515625	9445.686523	4444.092285	39.631973
637.793762	1242.434326	9263.645508	4243.846191	37.418438
638.128052	1124.107300	9147.593750	4243.846191	38.882584
638.462280	1201.474976	9063.399414	4262.050293	38.929085
638.796509	1155.964600	9215.859375	4321.213867	39.271595
639.130615	1108.178589	8983.755859	4064.080078	37.532505
639.464722	1155.964600	8954.174805	4111.866211	37.904873
639.798767	1167.342163	8874.531250	4107.314941	38.145847
640.132751	1192.372925	9081.603516	4084.559814	36.659939
640.466736	1201.474976	8662.907227	4082.284424	38.609337
640.800598	1249.260864	8558.233398	4018.569824	37.889172
641.134521	1117.280762	8637.876953	4075.457764	39.334343
641.468262	1121.831787	8446.733398	3963.957275	38.800869
641.802063	1171.893188	8408.049805	3918.446777	37.955975
642.135803	1208.301514	8396.671875	4061.804688	39.696110
642.469421	1187.821899	8342.059570	4025.396240	39.662846
642.803101	1155.964600	8294.273438	3932.099854	38.890659
643.136658	1153.689087	8200.976563	3850.181152	38.262836
643.470215	1169.617676	8291.998047	3813.772949	37.124599
643.803711	1224.230225	8294.273438	3850.181152	37.141937
644.137085	1110.454102	8200.976563	3968.508301	40.308090
644.470581	1133.209351	8223.732422	3857.007813	38.414631
644.803833	1226.505737	8282.895508	3913.895752	38.084492
645.137207	1169.617676	8189.599121	3827.426025	37.860619
645.470459	1178.719727	8134.986816	3882.038574	38.861629
645.803589	1146.862427	8223.732422	3813.772949	37.684891
646.136780	1167.342163	8134.986816	3916.171387	39.451340
646.469849	1201.474976	8401.222656	3825.150391	36.441212
646.802979	1215.128052	8109.956055	3932.099854	39.405937
647.135986	1251.536499	8330.681641	3852.456787	36.740601
647.468994	1185.546387	8278.344727	3959.406250	39.108116
647.801941	1126.382813	8319.303711	3888.864990	38.405567
648.134766	1126.382813	8239.661133	3998.090088	40.371078
648.467651	1196.923950	8169.119629	3706.823486	35.998695
648.800354	1162.791138	8355.711914	3952.579590	38.785198
649.133179	1126.382813	8205.528320	3886.589600	38.990677
649.465881	1201.474976	8139.538086	3711.374512	36.175793
649.798462	1187.821899	8367.089844	3834.252441	36.862125
650.131104	1201.474976	8264.691406	3850.181152	37.500000
650.463623	1190.097412	8150.915527	3820.599365	37.790127
650.796143	1153.689087	8171.395020	3829.701416	38.132294
651.128662	1158.240112	8235.109375	3786.466553	37.138268
651.461060	1133.209351	8232.833984	3747.782715	36.826923
651.793396	1183.270874	8348.885742	3954.855225	38.678947
652.125732	1194.648438	8237.385742	3818.323975	37.253632
652.458008	1153.689087	8287.446289	3895.691650	38.437000
652.790222	1128.658325	8323.855469	3872.936523	38.140419
653.122437	1201.474976	8087.201172	3738.680664	36.847321
653.454529	1190.097412	8066.721191	3729.578613	36.929184
653.786621	1165.066650	7955.220703	3761.435791	38.237263
654.118713	1183.270874	8066.721191	3695.445801	36.495865
654.450623	1185.546387	8071.272461	3618.078125	35.327164
654.782654	1153.689087	7996.180176	3593.047363	35.650150
655.114502	1287.944824	8057.619141	3834.252441	37.613445
655.446350	1096.801025	7836.893555	3645.384277	37.812286
655.778198	1192.372925	7941.567383	3690.894775	37.019558
656.109863	1196.923950	7984.802734	3467.893799	33.456249
656.441650	1126.382813	7839.168945	3674.966064	37.966103
656.773254	1171.893188	7845.995605	3558.914551	35.765430
657.104919	1190.097412	7784.556641	3520.230713	35.334717
657.436462	1171.893188	7845.995605	3686.343750	37.674740
657.767944	1212.852539	7955.220703	3750.058350	37.630783
658.099548	1228.781250	8055.343750	3665.864014	35.700001
658.430908	1187.821899	8048.517090	3677.241699	36.285244
658.762268	1119.556274	8219.180664	3756.884766	37.147438
659.093628	1101.352051	8489.967773	3852.456787	37.234371
659.424927	1174.168701	8858.602539	3918.446777	35.712170
659.756226	1133.209351	9029.266602	3991.263428	36.195965
660.087341	1219.679199	9270.471680	4093.661865	35.698135
660.418518	1192.372925	9231.788086	4073.182129	35.833565
660.749573	1167.342163	9190.828125	4111.866211	36.698811
661.080627	1128.658325	9040.644531	4052.702637	36.957146
661.411621	1158.240112	8940.521484	3909.344727	35.350876
661.742554	1149.138062	8838.123047	3950.304199	36.430897
662.073547	1169.617676	8378.467773	3836.528076	36.994949
662.404297	1153.689087	8514.999023	3806.946289	36.043278
662.735229	1199.199463	8166.844238	3715.925537	36.120186
663.065979	1199.199463	7950.669922	3574.843262	35.187057
663.396667	1162.791138	7882.404297	3565.741211	35.760246
663.727417	1167.342163	7682.158203	3586.220703	37.128883
664.057922	1221.954712	7761.801270	3488.373291	34.655529
664.388611	1194.648438	7452.330566	3545.261475	37.563637
664.719116	1190.097412	7588.861816	3454.240479	35.384064
665.049622	1208.301514	7459.157227	3445.138428	35.784492
665.380005	1210.577026	7386.340332	3399.628174	35.445843
665.710388	1190.097412	7393.166992	3395.077148	35.546593
666.040771	1165.066650	7156.512695	3433.760986	37.865555
666.371033	1199.199463	7386.340332	3370.046387	35.086433
666.701294	1235.607788	7224.778320	3390.525879	35.980240
667.031555	1105.903076	7176.992676	3438.312012	38.418289
667.361633	1165.066650	7340.830078	3381.423828	35.887985
667.691772	1174.168701	7249.809082	3408.730225	36.779026
668.021790	1244.709839	7206.574219	3244.892578	33.549618
668.351807	1160.515625	7147.410645	3308.607178	35.879894
668.681763	1174.168701	7158.788574	3431.485352	37.718628
669.011719	1117.280762	7147.410645	3349.566650	37.018867
669.341614	1133.209351	7258.911133	3399.628174	36.998520
669.671387	1153.689087	7122.379883	3201.657715	34.311855
670.001221	1199.199463	7304.421875	3201.657715	32.799103
670.330933	1196.923950	7258.911133	3360.944336	35.698204
670.660583	1208.301514	7197.472168	3322.260254	35.296349
670.990173	1242.434326	7447.779785	3374.597412	34.360100
671.319763	1201.474976	7035.910156	3351.842041	36.856476
671.649292	1208.301514	7090.522949	3326.811523	36.015472
671.978821	1133.209351	7051.838867	3279.025391	36.255283
672.308289	1187.821899	7040.461426	3256.270264	35.342144
672.637695	1201.474976	7076.869629	3228.964111	34.508137
672.966980	1096.801025	6801.531738	3235.790527	37.495014
673.296326	1126.382813	6840.215332	3235.790527	36.917564
673.625610	1224.230225	6662.725098	3238.066162	37.029285
673.954773	1178.719727	6819.735840	3192.555664	35.699879
674.283936	1119.556274	6812.909180	3117.463379	35.091923
674.613037	1180.995239	6771.949707	3192.555664	35.978836
674.942078	1196.923950	6751.470215	3217.586426	36.378532
675.271118	1155.964600	6635.418457	2994.585449	33.554817
675.600098	1251.536499	6785.603027	3147.045166	34.251644
675.928955	1203.750488	6435.172852	3197.106689	38.103523
676.257813	1174.168701	6430.621582	3133.392090	37.272728
676.586670	1158.240112	6703.684082	3133.392090	35.617565
676.915466	1215.128052	6610.387695	3103.810303	35.006325
677.244141	1233.332275	6692.306641	3094.708252	34.097538
677.572876	1185.546387	6551.224609	3112.912354	35.920269
677.901489	1208.301514	6564.877441	3090.157227	35.131691
678.230042	1215.128052	6476.132324	3042.371338	34.731834
678.558594	1149.138062	6669.551270	3238.066162	37.840073
678.887085	1165.066650	6580.806152	3108.361328	35.882355
679.215515	1117.280762	6740.092773	3128.841064	35.774986
679.543945	1187.821899	6826.562500	3140.218750	34.624695
679.872253	1221.954712	6963.093750	3140.218750	33.412601
680.200562	1196.923950	7117.829102	3215.310791	34.089161
680.528809	1165.066650	7038.186035	3244.892578	35.412628
680.856995	1192.372925	7208.850098	3203.933350	33.434193
681.185120	1140.035889	7297.595215	3301.780762	35.107170
681.513306	1183.270874	7261.187012	3285.852051	34.593784
681.841309	1115.005249	7329.452637	3272.198975	34.712563
682.169373	1190.097412	7302.146484	3240.341553	33.544304
682.497314	1171.893188	7288.493164	3213.035400	33.370537
682.825134	1155.964600	7190.645508	3301.780762	35.558075
683.153076	1201.474976	7149.686523	3294.954102	35.195099
683.480896	1180.995239	6938.062988	3197.106689	35.019760
683.808655	1162.791138	6906.205566	3144.769775	34.508717
684.136414	1208.301514	6885.726074	3210.759766	35.270538
684.464050	1224.230225	6639.969727	3060.575439	33.907562
684.791626	1155.964600	6507.989258	2987.758789	34.226192
685.119263	1201.474976	6667.275879	3076.504150	34.304749
685.446838	1146.862427	6453.376953	3030.993652	35.506004
685.774292	1119.556274	6339.601074	2985.483398	35.745422
686.101685	1137.760376	6414.693359	2933.146240	34.023281
686.429077	1094.525513	6241.753418	2871.707275	34.526966
686.756348	1137.760376	6216.722656	2894.462402	34.587814
687.083679	1180.995239	6259.957520	2949.074951	34.811829
687.410950	1119.556274	6423.795410	2889.911377	33.376228
687.738159	1180.995239	6394.213379	2912.666504	33.216934
688.065308	1233.332275	6321.396973	2942.248291	33.586761
688.392395	1246.985352	6403.315430	2885.360352	31.774052
688.719421	1183.270874	6441.999512	2944.523926	33.491993
689.046448	1221.954712	6414.693359	2996.860840	34.180538
689.373413	1162.791138	6280.437500	2983.207764	35.571362
689.700317	1208.301514	6364.631836	3040.095703	35.525154
690.027100	1196.923950	6259.957520	2867.156250	32.988766
690.353943	1203.750488	6189.416504	2928.595215	34.596073
690.680725	1142.311401	6064.262695	2823.921387	34.165516
691.007446	1167.342163	6137.079590	2892.187012	34.706963
691.334106	1130.933838	5948.211426	2871.707275	36.136044
691.660645	1062.668213	5927.731445	2714.696289	33.956970
691.987244	1151.413574	5825.333008	2653.257324	32.132427
692.313721	1199.199463	5677.424316	2696.492188	33.434963
692.640259	1087.698975	5638.740723	2730.625000	36.099998
692.966675	1144.586914	5561.373047	2712.420898	35.497169
693.293030	1201.474976	5552.270996	2723.798340	34.989536
693.619324	1206.026001	5461.250000	2716.971924	35.508022
693.945618	1169.617676	5675.148926	2710.145264	34.191917
694.271851	1171.893188	5452.147949	2676.012451	35.140881
694.598083	1212.852539	5436.219238	2637.328613	33.728447
694.924194	1174.168701	5381.606934	2660.083740	35.316383
695.250244	1183.270874	5361.126953	2637.328613	34.803921
695.576294	1190.097412	5424.841797	2660.083740	34.712517
695.902283	1146.862427	5565.923828	2694.216553	35.015446
696.228210	1185.546387	5484.005371	2644.155273	33.933296
696.554138	1183.270874	5504.484863	2600.920166	32.806736
696.879944	1178.719727	5611.434082	2582.716064	31.673513
697.205750	1196.923950	5458.974609	2584.991699	32.568073
697.531433	1151.413574	5618.260742	2610.022461	32.654102
697.857178	1190.097412	5738.863281	2712.420898	33.466740
698.182739	1158.240112	5950.486816	2814.819336	34.567905
698.508423	1206.026001	6155.283691	2817.094727	32.551723
698.833984	1185.546387	6469.305664	2878.533936	32.041344
699.159485	1101.352051	6678.653320	3008.238525	34.190128
699.484924	1153.689087	6740.092773	3035.544678	33.686352
699.810303	1142.311401	6965.369141	2985.483398	31.652992
700.135681	1140.035889	7029.083984	3028.718262	32.071098
700.460999	1219.679199	6851.593262	3065.126465	32.767673
700.786255	1206.026001	6592.183594	2983.207764	32.995354
701.111450	1167.342163	6376.009277	2987.758789	34.949760
701.436646	1144.586914	6244.029297	2955.901611	35.519859
701.761719	1192.372925	5998.272949	2842.125488	34.327652
702.086792	1165.066650	6016.477051	2903.564453	35.834896
702.411865	1155.964600	5807.128906	2682.839111	32.827793
702.736816	1215.128052	5668.322266	2596.369141	31.016861
703.061646	1162.791138	5547.719727	2603.195801	32.848988
703.386536	1194.648438	5251.901855	2548.583252	33.370724
703.711365	1219.679199	5311.065430	2596.369141	33.648495
704.036194	1196.923950	5124.472656	2589.542725	35.457706
704.360901	1174.168701	5022.074219	2514.450439	34.831463
704.685547	1162.791138	4915.125000	2484.868652	35.233471
705.010132	1208.301514	5067.584961	2553.134277	34.846695
705.334717	1121.831787	4960.635254	2402.949951	33.372852
705.659302	1228.781250	4812.726563	2532.654541	36.380947
705.983765	1140.035889	4721.705566	2407.500977	35.387547
706.308228	1274.291626	4821.828613	2327.857666	29.698521
706.632568	1133.209351	4780.869141	2434.807373	35.683098
706.956909	1119.556274	4799.073242	2371.092773	34.013607
707.281189	1140.035889	4815.001953	2414.327637	34.674927
707.605408	1158.240112	4835.481934	2366.541748	32.858913
707.929626	1183.270874	4762.665039	2359.715088	32.867134
708.253784	1167.342163	4958.359863	2487.144287	34.813927
708.577820	1226.505737	4794.522461	2439.358398	33.992348
708.901855	1146.862427	4694.399414	2432.531738	36.241180
709.225830	1221.954712	4787.695801	2448.460449	34.396938
709.549805	1171.893188	4815.001953	2321.031250	31.542786
709.873718	1185.546387	4944.706543	2425.705078	32.990314
710.197510	1153.689087	4944.706543	2402.949951	32.953182
710.521362	1233.332275	5094.891113	2398.398926	30.170889
710.845093	1192.372925	4910.573730	2562.236328	36.842106
711.168701	1160.515625	5001.594727	2516.726074	35.308060
711.492432	1149.138062	5044.829590	2464.388916	33.761681
711.816040	1119.556274	5094.891113	2405.225586	32.341156
712.139587	1199.199463	5103.993164	2507.624023	33.508160
712.463074	1146.862427	5242.799805	2389.296875	30.333336
712.786499	1176.444214	5438.494629	2516.726074	31.446880
713.109924	1155.964600	5245.075684	2382.470215	29.994431
713.433350	1190.097412	5210.942871	2468.940186	31.805321
713.756592	1155.964600	5113.095215	2407.500977	31.627371
714.079834	1196.923950	5074.411621	2409.776611	31.279343
714.403015	1165.066650	4956.084473	2439.358398	33.613445
714.726196	1192.372925	4935.604492	2375.643799	31.610947
715.049255	1171.893188	4903.747559	2414.327637	33.292683
715.372375	1249.260864	4901.471680	2416.603027	31.962616
715.695435	1174.168701	4910.573730	2380.194824	32.277714
716.018311	1187.821899	4896.920898	2289.173828	29.693247
716.341248	1178.719727	4894.645020	2261.867676	29.148809
716.664063	1176.444214	4919.675781	2380.194824	32.158058
716.987000	1210.577026	4924.227051	2336.959961	30.330887
717.309692	1165.066650	4919.675781	2309.653564	30.484848
717.632385	1183.270874	4755.838379	2307.378174	31.464972
717.955078	1105.903076	4794.522461	2232.285889	30.536705
718.277649	1155.964600	4610.205078	2300.551514	33.135704
718.600220	1208.301514	4723.980957	2223.183838	28.867317
718.922791	1226.505737	4683.021973	2252.765625	29.690586
719.245300	1133.209351	4448.643066	2195.877686	32.052166
719.567688	1224.230225	4291.632324	2193.602051	31.602371
719.890015	1224.230225	4355.346680	2168.571289	30.159883
720.212341	1176.444214	4268.876953	2193.602051	32.891834
720.534607	1194.648438	4232.468750	2248.214600	34.681648
720.856873	1121.831787	4141.447754	2166.295898	34.589302
721.179016	1140.035889	4066.355713	2161.744873	34.914467
721.501160	1151.413574	4118.692871	2243.663574	36.809814
721.823242	1171.893188	4109.590332	2045.693237	29.744387
722.145264	1151.413574	4159.651855	2084.376953	31.013613
722.467224	1208.301514	3991.263428	2113.958740	32.542927
722.789185	1155.964600	4073.182129	2091.203613	32.059284
723.111023	1167.342163	4084.559814	2066.172852	30.811230
723.432861	1219.679199	3902.518066	2022.937988	29.940628
723.754578	1149.138062	4052.702637	2063.897461	31.504704
724.076294	1192.372925	3979.885986	2070.723877	31.510199
724.397949	1199.199463	3836.528076	2091.203613	33.822262
724.719666	1133.209351	3988.988037	2018.386963	30.996014
725.041260	1178.719727	4014.018799	1986.529663	28.491173
725.362732	1158.240112	4029.947266	2082.101563	32.171158
725.684265	1096.801025	4043.600586	2057.070801	32.586872
726.005676	1158.240112	3984.437012	2002.458252	29.871174
726.327087	1221.954712	3836.528076	2027.489014	30.809399
726.648438	1169.617676	3968.508301	2082.101563	32.601627
726.969666	1221.954712	3986.712402	2082.101563	31.111111
727.290894	1228.781250	3938.926514	2070.723877	31.066328
727.612061	1126.382813	4050.427002	2079.825928	32.607002
727.933228	1244.709839	4070.906738	2027.489014	27.697264
728.254395	1135.484863	4268.876953	2061.621826	29.557009
728.575378	1144.586914	4257.499512	2148.091553	32.236839
728.896301	1124.107300	4080.008789	2134.438477	34.180138
729.217285	1176.444214	4186.958496	2159.469238	32.653061
729.538147	1158.240112	4289.356934	2107.132324	30.305233
729.858948	1194.648438	4243.846191	2091.203613	29.402987
730.179810	1153.689087	4227.917480	2052.519775	29.237602
730.500549	1226.505737	4202.886719	2091.203613	29.051991
730.821228	1180.995239	4095.937500	2159.469238	33.567524
731.141846	1155.964600	4225.642090	2127.612061	31.653080
731.462402	1235.607788	4250.672852	2004.733887	25.509438
731.782898	1167.342163	4241.570801	2132.163086	31.384165
732.103455	1249.260864	4223.366699	2100.305664	28.615147
732.423889	1235.607788	4159.651855	2125.336426	30.428019
732.744263	1178.719727	4243.846191	2154.918213	31.848555
733.064636	1237.883301	4264.326172	2148.091553	30.075184
733.384888	1201.474976	4202.886719	2170.846924	32.297199
733.705200	1190.097412	4221.091309	2157.193604	31.906900
734.025330	1208.301514	4234.744141	2118.509766	30.075186
734.345520	1224.230225	4330.315918	2111.683350	28.571430
734.665527	1210.577026	4166.478516	2113.958740	30.561972
734.985596	1206.026001	4086.835449	2118.509766	31.674561
735.305542	1171.893188	4180.131836	2113.958740	31.316183
735.625549	1158.240112	4025.396240	2041.142212	30.793652
735.945435	1140.035889	3934.375488	2098.030273	34.283390
736.265259	1219.679199	3995.814453	2025.213501	29.016392
736.585083	1201.474976	3922.997803	2036.591064	30.685616
736.904785	1135.484863	3834.252441	1963.774414	30.691401
737.224426	1196.923950	3888.864990	2016.111450	30.431110
737.544128	1155.964600	3904.793701	1938.743774	28.476822
737.863708	1194.648438	3818.323975	1943.294800	28.534258
738.183289	1153.689087	3816.048340	2038.866699	33.247864
738.502808	1246.985352	3893.416016	2025.213501	29.406708
738.822205	1185.546387	3761.435791	1963.774414	30.212013
739.141541	1178.719727	3970.783691	2082.101563	32.355343
739.460938	1217.403687	3784.191162	2041.142212	32.092197
739.780212	1190.097412	3970.783691	2018.386963	29.787235
740.099426	1228.781250	4007.192139	2084.376953	30.794426
740.418640	1206.026001	3988.988037	2013.835938	29.026985
740.737793	1149.138062	4041.324951	2038.866699	30.763178
741.056885	1169.617676	3991.263428	2018.386963	30.080647
741.375977	1174.168701	3913.895752	1956.947876	28.571428
741.694946	1160.515625	3995.814453	2057.070801	31.621187
742.013855	1199.199463	3888.864990	1922.815063	26.903553
742.332703	1137.760376	3781.915527	1963.774414	31.239241
742.651550	1228.781250	3629.455566	1856.824951	26.161137
742.970398	1158.240112	3611.251465	1979.703125	33.487942
743.289124	1169.617676	3702.272461	1943.294800	30.548069
743.607788	1196.923950	3761.435791	1961.498901	29.813665
743.926453	1190.097412	3524.781738	1900.059814	30.409353
744.245056	1083.147949	3711.374512	1959.223389	33.333332
744.563599	1158.240112	3554.363525	1929.641602	32.193729
744.882141	1171.893188	3652.210938	1831.794189	26.605501
745.200500	1135.484863	3568.016602	1954.672363	33.676334
745.518860	1240.158813	3618.078125	1872.753662	26.602871
745.837219	1130.933838	3508.853027	1749.875488	26.028708
746.155518	1167.342163	3593.047363	1906.886475	30.487808
746.473755	1144.586914	3458.791504	1872.753662	31.465097
746.791992	1240.158813	3572.567627	1822.692139	24.975611
747.110107	1155.964600	3458.791504	1859.100464	30.533596
747.428162	1251.536499	3486.097900	1831.794189	25.967407
747.746216	1149.138062	3495.199951	1875.029175	30.940832
748.064148	1158.240112	3438.312012	1840.896362	29.940121
748.382080	1192.372925	3524.781738	1897.784302	30.243900
748.700073	1119.556274	3508.853027	1845.447388	30.380951
749.017822	1153.689087	3431.485352	1863.651489	31.168827
749.335632	1126.382813	3454.240479	1902.335449	33.333336
749.653320	1206.026001	3538.434814	1845.447388	27.414637
749.971008	1174.168701	3529.332764	1834.069824	28.019327
750.288696	1183.270874	3522.506104	1886.406738	30.058363
750.606262	1105.903076	3595.322754	1840.896362	29.524683
750.923828	1187.821899	3497.475586	1784.008301	25.812803
751.241272	1210.577026	3620.353516	1886.406738	28.045328
751.558716	1199.199463	3533.883789	1909.161987	30.409359
751.876038	1215.128052	3438.312012	1843.171875	28.249744
752.193481	1174.168701	3351.842041	1859.100464	31.452457
752.510681	1137.760376	3422.383301	1840.896362	30.776894
752.827942	1176.444214	3417.832275	1811.314575	28.324873
753.145081	1124.107300	3486.097900	1893.233276	32.562614
753.462219	1151.413574	3345.015625	1743.048950	26.970953
753.779297	1185.546387	3504.302002	1777.181763	25.515211
754.096375	1105.903076	3379.148438	1802.212524	30.630632
754.413330	1201.474976	3349.566650	1875.029175	31.355932
754.730286	1140.035889	3433.760986	1809.039063	29.166668
755.047119	1192.372925	3445.138428	1797.661377	26.868683
755.363892	1085.423462	3342.739990	1811.314575	32.157261
755.680725	1155.964600	3342.739990	1743.048950	26.847034
755.997498	1203.750488	3269.923340	1779.457275	27.863438
756.314148	1219.679199	3306.331787	1815.865601	28.571426
756.630737	1183.270874	3345.015625	1806.763550	28.842106
756.947327	1165.066650	3242.617188	1777.181763	29.463308
757.263855	1174.168701	3253.994629	1770.355225	28.665213
757.580261	1187.821899	3292.678711	1770.355225	27.675673
757.896729	1208.301514	3333.637939	1820.416626	28.800858
758.213074	1180.995239	3420.107666	1781.732788	26.829273
758.529419	1149.138062	3263.096924	1870.478149	34.122711
758.845642	1192.372925	3367.770752	1774.906250	26.778242
759.161865	1199.199463	3372.321777	1865.927002	30.680626
759.478149	1246.985352	3451.965088	1849.998413	27.347782
759.794189	1233.332275	3424.658691	1895.508789	30.218069
760.110229	1162.791138	3442.863037	1847.722900	30.039921
760.426270	1215.128052	3522.506104	1845.447388	27.317560
760.742249	1192.372925	3515.679688	1863.651489	28.893240
761.058105	1162.791138	3472.444824	1849.998413	29.753693
761.374023	1187.821899	3611.251465	1868.202637	28.075117
761.689819	1092.250000	3411.005615	1925.090576	35.917564
762.005554	1192.372925	3449.689453	1854.549438	29.334679
762.321289	1192.372925	3540.710449	1790.834839	25.484495
762.636902	1206.026001	3486.097900	1854.549438	28.443115
762.952515	1126.382813	3599.874023	1943.294800	33.026680
763.268127	1203.750488	3563.465576	1879.580200	28.640310
763.583618	1151.413574	3674.966064	1875.029175	28.674482
763.899048	1185.546387	4127.794922	2025.213501	28.538280
764.214478	1133.209351	4373.550781	2150.367188	31.390453
764.529785	1183.270874	4689.848145	2136.714111	27.190140
764.845093	1201.474976	4912.849609	2245.938965	28.142242
765.160400	1301.597900	4896.920898	2284.622803	27.341768
765.475586	1187.821899	4749.011719	2179.948975	27.859426
765.790771	1178.719727	4357.622559	2175.397949	31.352900
766.105835	1119.556274	4337.142578	2079.825928	29.844410
766.420837	1142.311401	4250.672852	2129.887451	31.771597
766.735840	1190.097412	4050.427002	1995.631714	28.162289
767.050842	1178.719727	3802.395264	1993.356201	31.049437
767.365662	1242.434326	3706.823486	1961.498901	29.178207
767.680542	1137.760376	3613.527100	1906.886475	31.066179
767.995300	1103.627563	3624.904541	1793.110352	27.346571
768.309998	1176.444214	3597.598389	1863.651489	28.383457
768.624817	1158.240112	3445.138428	1804.488037	28.258707
768.939392	1226.505737	3536.159424	1809.039063	25.221672
769.254028	1183.270874	3367.770752	1797.661377	28.124994
769.568481	1210.577026	3363.219727	1770.355225	26.004232
769.882935	1183.270874	3297.229736	1786.283813	28.525290
770.197388	1194.648438	3226.688477	1847.722900	32.138859
770.511841	1140.035889	3240.341553	1777.181763	30.335865
770.826172	1240.158813	3290.403076	1822.692139	28.412876
771.140442	1251.536499	3215.310791	1752.151001	25.492466
771.454651	1140.035889	3267.647949	1747.599976	28.556150
771.768860	1178.719727	3197.106689	1745.324463	28.072157
772.082886	1153.689087	3110.636963	1690.711914	27.441856
772.397034	1155.964600	3208.484375	1715.742676	27.272726
772.711060	1165.066650	3203.933350	1731.671387	27.790180
773.025024	1196.923950	3083.330566	1663.405762	24.728592
773.338928	1178.719727	3035.544678	1649.752563	25.367649
773.652771	1176.444214	3183.453613	1824.967651	32.312923
773.966614	1171.893188	3096.983887	1686.160889	26.713947
774.280457	1178.719727	3037.820313	1772.630737	31.946148
774.594116	1128.658325	2985.483398	1670.232300	29.166666
774.907776	1124.107300	2990.034424	1629.272949	27.073172
775.221375	1119.556274	2951.350586	1738.497925	33.788818
775.534912	1183.270874	2942.248291	1731.671387	31.177235
775.848450	1224.230225	2960.452637	1622.446289	22.935776
776.161926	1137.760376	2992.309814	1661.130127	28.220858
776.475342	1174.168701	2928.595215	1636.099487	26.329447
776.788696	1192.372925	3010.513916	1656.579102	25.531914
777.101990	1231.056763	2903.564453	1649.752563	25.034014
777.415283	1235.607788	2787.512939	1638.375000	25.953081
777.728516	1256.087524	2876.258301	1574.660400	19.662920
778.041626	1210.577026	2885.360352	1654.303589	26.494566
778.354736	1171.893188	2862.605225	1629.272949	27.052494
778.667725	1251.536499	2821.645752	1667.956787	26.521740
778.980774	1135.484863	2880.809326	1597.415649	26.466757
779.293640	1183.270874	2778.410889	1642.926025	28.815975
779.606567	1206.026001	2785.237549	1624.721802	26.512964
779.919434	1180.995239	2848.952148	1638.375000	27.421556
780.232239	1169.617676	2817.094727	1661.130127	29.834251
780.544983	1158.240112	2810.268311	1752.151001	35.950409
780.857666	1272.016113	2785.237549	1704.365112	28.571430
781.170227	1217.403687	2807.992676	1615.619751	25.035761
781.482849	1219.679199	2855.778564	1640.650513	25.730181
781.795410	1190.097412	2753.380127	1599.691162	26.200874
782.107910	1183.270874	2730.625000	1611.068726	27.647055
782.420288	1206.026001	2712.420898	1586.037964	25.226583
782.732666	1180.995239	2641.879639	1563.282837	26.168230
783.044983	1126.382813	2707.869873	1581.486938	28.776974
783.357300	1144.586914	2805.717041	1672.507813	31.780827
783.669495	1171.893188	2598.644775	1599.691162	29.984055
783.981689	1121.831787	2571.338623	1595.140137	32.653061
784.293762	1126.382813	2639.604248	1629.272949	33.233082
784.605835	1196.923950	2628.226563	1626.997314	30.047689
784.917908	1187.821899	2666.910400	1561.007324	25.230770
785.229858	1171.893188	2578.165039	1556.456177	27.346277
785.541748	1180.995239	2578.165039	1570.109375	27.850168
785.853577	1219.679199	2566.787354	1556.456177	24.999996
786.165405	1124.107300	2596.369141	1661.130127	36.476040
786.477173	1233.332275	2621.399902	1581.486938	25.081966
786.788879	1192.372925	2616.848877	1542.803101	24.600637
787.100525	1144.586914	2539.481201	1497.292725	25.285486
787.412109	1180.995239	2582.716064	1563.282837	27.272734
787.723694	1224.230225	2605.471436	1570.109375	25.041183
788.035156	1233.332275	2610.022461	1526.874512	21.322317
788.346558	1208.301514	2630.501953	1531.425537	22.720005
788.658081	1221.954712	2553.134277	1551.905151	24.786322
788.969360	1133.209351	2782.961914	1554.180664	25.517239
789.280640	1185.546387	2712.420898	1626.997314	28.912064
789.591919	1212.852539	2776.135498	1624.721802	26.346432
789.903076	1192.372925	2894.462402	1624.721802	25.401066
790.214172	1219.679199	2755.655762	1561.007324	22.222221
790.525269	1171.893188	2719.247314	1622.446289	29.117647
790.836365	1160.515625	2769.308838	1647.477051	30.268740
791.147339	1196.923950	2655.532715	1551.905151	24.336971
791.458191	1144.586914	2616.848877	1581.486938	29.675426
791.769104	1153.689087	2557.685303	1545.078613	27.876822
792.079895	1180.995239	2550.858887	1656.579102	34.717606
792.390686	1185.546387	2534.930176	1561.007324	27.824621
792.701416	1185.546387	2548.583252	1563.282837	27.712856
793.012085	1199.199463	2537.205811	1506.394775	22.959183
793.322693	1169.617676	2434.807373	1485.915039	24.999994
793.633240	1140.035889	2475.766602	1526.874512	28.960825
793.943787	1171.893188	2505.348389	1513.221313	25.597269
794.254272	1167.342163	2434.807373	1501.843750	26.391382
794.564636	1176.444214	2350.613037	1535.976563	30.620157
794.875000	1133.209351	2519.001465	1531.425537	28.735636
795.185303	1149.138062	2446.184814	1465.435425	24.385965
795.495544	1176.444214	2409.776611	1465.435425	23.431738
795.805786	1221.954712	2402.949951	1574.660400	29.865124
796.115906	1203.750488	2441.633789	1581.486938	30.514706
796.426025	1130.933838	2405.225586	1510.945801	29.821424
796.736023	1192.372925	2523.552490	1545.078613	26.495726
797.045959	1185.546387	2500.797363	1499.568237	23.875431
797.355896	1153.689087	2644.155273	1561.007324	27.328243
797.665833	1185.546387	2559.960938	1469.986450	20.695362
797.975708	1185.546387	2610.022461	1492.741699	21.565495
798.285461	1165.066650	2578.165039	1458.608887	20.772951
798.595154	1142.311401	2453.011475	1485.915039	26.215275
798.904846	1165.066650	2546.307861	1481.364014	22.899502
799.214478	1151.413574	2612.297852	1497.292725	23.676012
799.524109	1140.035889	2457.562500	1458.608887	24.179625
799.833557	1201.474976	2437.082764	1497.292725	23.941072
800.143005	1158.240112	2343.786377	1549.629639	33.013432
800.452393	1146.862427	2437.082764	1526.874512	29.453270
800.761780	1183.270874	2325.582275	1535.976563	30.876492
801.071106	1169.617676	2375.643799	1547.354126	31.320751
801.380371	1142.311401	2346.062012	1510.945801	30.623817
801.689575	1160.515625	2309.653564	1488.190552	28.514847
801.998718	1146.862427	2325.582275	1495.017212	29.536686
802.307800	1183.270874	2321.031250	1463.159912	24.599998
802.616882	1165.066650	2393.847900	1419.924927	20.740736
802.925903	1155.964600	2293.724854	1520.047852	31.999998
803.234863	1203.750488	2300.551514	1429.027100	20.539423
803.543701	1174.168701	2286.898438	1501.843750	29.447855
803.852539	1155.964600	2314.204590	1438.129150	24.361492
804.161316	1110.454102	2248.214600	1454.057739	30.199997
804.470032	1174.168701	2327.857666	1456.333252	24.457592
804.778809	1153.689087	2177.673340	1497.292725	33.555557
805.087341	1190.097412	2293.724854	1383.516602	17.525768
805.395935	1140.035889	2277.796387	1499.568237	31.600002
805.704468	1183.270874	2268.694336	1495.017212	28.721172
806.012939	1130.933838	2325.582275	1415.373901	23.809521
806.321350	1240.158813	2214.081787	1590.588989	35.981304
806.629761	1203.750488	2398.398926	1540.527588	28.190477
806.938049	1151.413574	2273.245361	1520.047852	32.860031
807.246277	1235.607788	2330.133301	1558.731689	29.521824
807.554504	1140.035889	2350.613037	1529.150024	32.142860
807.862671	1185.546387	2409.776611	1499.568237	25.650555
808.170715	1194.648438	2282.347412	1431.302612	21.757322
808.478821	1190.097412	2241.387939	1458.608887	25.541130
808.786804	1174.168701	2350.613037	1456.333252	23.984522
809.094727	1226.505737	2282.347412	1474.537476	23.491377
809.402649	1210.577026	2248.214600	1435.853638	21.710529
809.710510	1206.026001	2327.857666	1474.537476	23.935095
810.018311	1194.648438	2334.684326	1397.169800	17.764473
810.326050	1142.311401	2252.765625	1542.803101	36.065575
810.633667	1137.760376	2220.908203	1447.231201	28.571430
810.941345	1185.546387	2252.765625	1315.250977	12.153509
811.248901	1190.097412	2241.387939	1429.027100	22.727274
811.556396	1135.484863	2127.612061	1447.231201	31.422012
811.863892	1130.933838	2209.530762	1369.863525	22.151897
812.171326	1187.821899	2189.051025	1390.343262	20.227274
812.478699	1224.230225	2166.295898	1435.853638	22.463764
812.786011	1242.434326	2136.714111	1424.476074	20.356241
813.093262	1174.168701	2148.091553	1433.578125	26.635521
813.400391	1210.577026	2098.030273	1435.853638	25.384617
813.707642	1274.291626	2111.683350	1442.680176	20.108696
814.014709	1258.363037	2132.163086	1378.965576	13.802075
814.321716	1158.240112	2118.509766	1410.822876	26.303316
814.628723	1246.985352	2095.754639	1328.904175	9.651483
814.935669	1203.750488	2223.183838	1454.057739	24.553568
815.242554	1174.168701	2166.295898	1388.067749	21.559639
815.549438	1224.230225	2166.295898	1385.792114	17.149748
815.856201	1199.199463	2145.816162	1394.894287	20.673080
816.162964	1196.923950	2116.234375	1442.680176	26.732670
816.469604	1185.546387	2034.315552	1383.516602	23.324389
816.776184	1171.893188	2159.469238	1383.516602	21.428568
817.082825	1162.791138	2225.459229	1415.373901	23.768736
817.389343	1130.933838	2259.592041	1415.373901	25.201612
817.695801	1176.444214	2136.714111	1385.792114	21.800943
818.002197	1178.719727	2161.744873	1378.965576	20.370369
818.308533	1153.689087	2136.714111	1454.057739	30.555546
818.614868	1231.056763	2138.989502	1413.098389	20.050123
818.921143	1146.862427	2223.183838	1363.036987	20.084574
819.227356	1094.525513	2234.561523	1410.822876	27.744507
819.533447	1206.026001	2223.183838	1449.506714	23.937359
819.839539	1196.923950	2305.102539	1440.404663	21.971252
820.145569	1212.852539	2284.622803	1467.710938	23.779200
820.451538	1208.301514	2341.510986	1440.404663	20.481928
820.757568	1171.893188	2537.205811	1497.292725	23.833336
821.063416	1169.617676	2698.767578	1499.568237	21.577385
821.369263	1180.995239	2721.522949	1601.966675	27.326443
821.675049	1146.862427	2764.757813	1599.691162	27.988752
821.980713	1199.199463	2999.136475	1706.640625	28.192162
822.286438	1149.138062	3185.729004	1713.467163	27.709497
822.592102	1192.372925	3863.834229	1902.335449	26.575811
822.897583	1224.230225	5477.178711	2280.071777	24.826109
823.203125	1235.607788	7759.525879	2901.289063	25.531916
823.508545	1199.199463	9411.553711	3479.271240	27.763924
823.813965	1151.413574	10276.251953	3472.444824	25.436411
824.119263	1199.199463	9281.849609	3329.086914	26.351349
824.424622	1133.209351	8112.231445	2974.105713	26.377569
824.729858	1142.311401	6981.297852	2744.278076	27.435698
825.035095	1176.444214	6030.129883	2427.980713	25.785282
825.340149	1167.342163	5169.983398	2327.857666	28.993744
825.645264	1265.189575	4794.522461	2100.305664	23.662151
825.950256	1210.577026	4519.184082	2173.122314	29.092161
826.255310	1192.372925	4196.060547	2098.030273	30.151518
826.560242	1185.546387	3952.579590	1941.019287	27.302631
826.865112	1135.484863	3752.333740	1918.264038	29.913044
827.169922	1140.035889	3663.588379	1784.008301	25.518486
827.474670	1169.617676	3561.189941	1938.743774	32.159851
827.779419	1212.852539	3950.304199	1920.539551	25.852037
828.084045	1199.199463	4453.194336	2063.897461	26.573429
828.388672	1167.342163	4865.063477	2214.081787	28.307695
828.693176	1130.933838	5024.350098	2161.744873	26.475746
828.997681	1208.301514	4607.929688	2154.918213	27.844713
829.302124	1112.729614	4050.427002	1952.396851	28.582497
829.606567	1119.556274	3556.638916	1827.243164	29.038282
829.910828	1199.199463	3338.188965	1720.293701	24.361702
830.215149	1215.128052	3069.677490	1738.497925	28.220863
830.519348	1144.586914	2914.942139	1665.681274	29.434452
830.823547	1099.076538	2712.420898	1563.282837	28.772921
831.127686	1167.342163	2707.869873	1636.099487	30.428360
831.431763	1155.964600	2523.552490	1526.874512	27.121468
831.735779	1210.577026	2478.042236	1472.261963	20.646320
832.039734	1176.444214	2366.541748	1469.986450	24.665394
832.343628	1149.138062	2243.663574	1422.200562	24.948025
832.647461	1124.107300	2232.285889	1372.139038	22.381927
832.951233	1155.964600	2277.796387	1524.598877	32.860031
833.255127	1180.995239	2334.684326	1481.364014	26.035505
833.558777	1146.862427	2230.010498	1413.098389	24.579830
833.862366	1196.923950	2468.940186	1419.924927	17.531300
834.165955	1117.280762	2575.889648	1561.007324	30.421217
834.469482	1155.964600	3026.442627	1670.232300	27.493917
834.773010	1185.546387	3358.668701	1768.079712	26.806284
835.076416	1167.342163	3652.210938	1770.355225	24.267403
835.379822	1199.199463	3549.812500	1829.518677	26.815100
835.683105	1149.138062	3376.872803	1667.956787	23.289070
835.986389	1174.168701	3046.922363	1681.609863	27.095991
836.289612	1121.831787	2926.319824	1674.783325	30.643126
836.592773	1103.627563	2712.420898	1517.772339	25.742571
836.895874	1212.852539	2591.818115	1576.935913	26.402643
837.198914	1133.209351	2505.348389	1542.803101	29.850746
837.501892	1165.066650	2357.439453	1520.047852	29.770990
837.804871	1187.821899	2398.398926	1447.231201	21.428566
838.107666	1121.831787	2202.704102	1463.159912	31.578949
838.410583	1183.270874	2120.785400	1351.659302	17.961155
838.713379	1153.689087	2138.989502	1353.934937	20.323330
839.016052	1219.679199	2000.182739	1413.098389	24.781334
839.318787	1146.862427	1888.682251	1347.108276	26.993866
839.621338	1224.230225	1904.610962	1328.904175	15.384614
839.923889	1206.026001	1886.406738	1340.281738	19.732443
840.226440	1196.923950	1986.529663	1392.618774	24.783867
840.528931	1210.577026	1970.601074	1374.414551	21.556887
840.831299	1226.505737	2123.060791	1342.557251	12.944160
841.133606	1174.168701	2152.642578	1417.649414	24.883720
841.435913	1194.648438	2150.367188	1406.271851	22.142855
841.738220	1201.474976	2123.060791	1363.036987	17.530870
842.040405	1231.056763	2136.714111	1397.169800	18.341709
842.342529	1228.781250	2063.897461	1294.771362	7.901908
842.644592	1194.648438	1995.631714	1365.312500	21.306820
842.946594	1199.199463	1870.478149	1383.516602	27.457619
843.248596	1249.260864	1950.121338	1367.588013	16.883125
843.550598	1162.791138	1795.385864	1319.802124	24.820154
843.852478	1119.556274	1804.488037	1358.485962	34.883720
844.154236	1210.577026	1738.497925	1328.904175	22.413803
844.455994	1178.719727	1740.773438	1374.414551	34.817814
844.757690	1244.709839	1804.488037	1308.424438	11.382115
845.059326	1233.332275	1779.457275	1317.526489	15.416656
845.360962	1137.760376	1765.804199	1265.189575	20.289858
845.662476	1160.515625	1702.089600	1369.863525	38.655457
845.963989	1135.484863	1674.783325	1285.669312	27.848114
846.265381	1237.883301	1661.130127	1340.281738	24.193552
846.566772	1105.903076	1624.721802	1262.914063	30.263168
846.868042	1171.893188	1647.477051	1235.607788	13.397132
847.169373	1128.658325	1690.711914	1256.087524	22.672073
847.470581	1176.444214	1683.885376	1319.802124	28.251139
847.771729	1208.301514	1613.344238	1256.087524	11.797771
848.072815	1194.648438	1665.681274	1317.526489	26.086939
848.373901	1183.270874	1533.701050	1269.740601	24.675308
848.674866	1171.893188	1645.201538	1251.536499	16.826941
848.975891	1165.066650	1683.885376	1299.322388	25.877195
849.276794	1221.954712	1699.814087	1260.638550	8.095235
849.577637	1235.607788	1677.058838	1215.128052	-4.639186
849.878357	1151.413574	1506.394775	1267.465088	32.692299
850.179077	1194.648438	1622.446289	1246.985352	12.234029
850.479736	1146.862427	1667.956787	1338.006226	36.681225
850.780396	1190.097412	1599.691162	1292.495850	25.000000
851.080994	1176.444214	1613.344238	1251.536499	17.187521
851.381470	1133.209351	1556.456177	1274.291626	33.333332
851.681946	1080.872437	1633.823975	1294.771362	38.683125
851.982361	1142.311401	1604.242188	1196.923950	11.822669
852.282715	1155.964600	1558.731689	1187.821899	7.909608
852.583008	1192.372925	1563.282837	1267.465088	20.245392
852.883240	1206.026001	1595.140137	1299.322388	23.976612
853.183411	1174.168701	1661.130127	1287.944824	23.364504
853.483521	1208.301514	1510.945801	1215.128052	2.255631
853.783630	1160.515625	1661.130127	1306.148926	29.090908
854.083679	1196.923950	1551.905151	1276.567139	22.435888
854.383667	1187.821899	1570.109375	1219.679199	8.333336
854.683533	1215.128052	1563.282837	1269.740601	15.686284
854.983337	1178.719727	1554.180664	1226.505737	12.727292
855.283203	1171.893188	1604.242188	1212.852539	9.473678
855.582886	1176.444214	1542.803101	1203.750488	7.453422
855.882629	1233.332275	1510.945801	1283.393677	18.032768
856.182312	1169.617676	1531.425537	1142.311401	-7.547175
856.481873	1140.035889	1654.303589	1312.975464	33.628319
856.781372	1183.270874	1570.109375	1306.148926	31.764690
857.080872	1178.719727	1551.905151	1171.893188	-1.829262
857.380310	1142.311401	1597.415649	1312.975464	37.499992
857.679688	1133.209351	1579.211426	1235.607788	22.959185
857.979004	1144.586914	1515.496826	1240.158813	25.766876
858.278259	1167.342163	1510.945801	1251.536499	24.503330
858.577454	1165.066650	1549.629639	1287.944824	31.952679
858.876648	1183.270874	1522.323364	1274.291626	26.845623
859.175720	1212.852539	1551.905151	1274.291626	18.120811
859.474792	1146.862427	1529.150024	1285.669312	36.309544
859.773743	1235.607788	1608.793213	1326.628662	24.390255
860.072693	1130.933838	1592.864502	1169.617676	8.374382
860.371521	1215.128052	1538.252075	1226.505737	3.521151
860.670349	1162.791138	1567.833862	1210.577026	11.797740
860.969116	1190.097412	1542.803101	1169.617676	-5.806466
861.267883	1180.995239	1524.598877	1208.301514	7.947027
861.566589	1231.056763	1588.313477	1233.332275	0.636940
861.865112	1130.933838	1558.731689	1228.781250	22.872347
862.163635	1196.923950	1581.486938	1153.689087	-11.242596
862.462158	1144.586914	1565.558350	1201.474976	13.513520
862.760620	1176.444214	1520.047852	1244.709839	19.867550
863.059021	1262.914063	1492.741699	1272.016113	3.960381
863.357361	1180.995239	1540.527588	1272.016113	25.316463
863.655640	1089.974487	1535.976563	1235.607788	32.653053
863.953857	1158.240112	1545.078613	1199.199463	10.588230
864.251953	1226.505737	1531.425537	1244.709839	5.970128
864.550110	1174.168701	1574.660400	1242.434326	17.045454
864.848206	1194.648438	1574.660400	1226.505737	8.383236
865.146179	1167.342163	1520.047852	1208.301514	11.612898
865.444092	1176.444214	1531.425537	1237.883301	17.307695
865.741943	1278.842651	1576.935913	1267.465088	-3.816780
866.039795	1180.995239	1579.211426	1278.842651	24.571430
866.337646	1233.332275	1581.486938	1301.597900	19.607845
866.635376	1240.158813	1485.915039	1237.883301	-0.925923
866.933044	1206.026001	1611.068726	1221.954712	3.932600
867.230652	1212.852539	1479.088501	1185.546387	-10.256372
867.528198	1228.781250	1508.670288	1224.230225	-1.626011
867.825745	1224.230225	1535.976563	1260.638550	11.678830
868.123230	1233.332275	1588.313477	1158.240112	-21.153843
868.420593	1217.403687	1535.976563	1217.403687	0.000000
868.717896	1178.719727	1526.874512	1210.577026	9.150327
869.015198	1121.831787	1504.119263	1192.372925	18.452379
869.312439	1167.342163	1488.190552	1212.852539	14.184386
869.609619	1174.168701	1531.425537	1219.679199	12.738874
869.906738	1174.168701	1426.751587	1221.954712	18.918941
870.203796	1146.862427	1533.701050	1235.607788	22.941185
870.500854	1130.933838	1542.803101	1258.363037	30.939236
870.797791	1126.382813	1499.568237	1328.904175	54.268295
871.094666	1199.199463	1495.017212	1272.016113	24.615376
871.391602	1174.168701	1624.721802	1226.505737	11.616175
871.688293	1212.852539	1531.425537	1228.781250	5.000019
871.985107	1187.821899	1531.425537	1210.577026	6.622493
872.281738	1217.403687	1529.150024	1196.923950	-6.569359
872.578369	1228.781250	1490.466064	1206.026001	-8.695670
872.874939	1119.556274	1533.701050	1269.740601	36.263725
873.171509	1158.240112	1481.364014	1231.056763	22.535210
873.467957	1169.617676	1590.588989	1237.883301	16.216217
873.764343	1115.005249	1554.180664	1301.597900	42.487045
874.060669	1178.719727	1558.731689	1244.709839	17.365273
874.356995	1178.719727	1645.201538	1201.474976	4.878057
874.653198	1297.046875	1604.242188	1221.954712	-24.444437
874.949463	1185.546387	1554.180664	1217.403687	8.641980
875.245544	1119.556274	1590.588989	1210.577026	19.323658
875.541626	1137.760376	1515.496826	1231.056763	24.698805
875.837646	1251.536499	1504.119263	1162.791138	-35.135162
876.133606	1165.066650	1510.945801	1283.393677	34.210510
876.429565	1192.372925	1479.088501	1281.118164	30.952360
876.725403	1174.168701	1547.354126	1265.189575	24.390255
877.021179	1169.617676	1517.772339	1244.709839	21.568623
877.316956	1203.750488	1592.864502	1297.046875	23.976620
877.612610	1185.546387	1604.242188	1219.679199	8.152175
877.908203	1121.831787	1570.109375	1267.465088	32.487305
878.203857	1135.484863	1540.527588	1265.189575	32.022476
878.499390	1146.862427	1520.047852	1294.771362	39.634167
878.794800	1153.689087	1563.282837	1251.536499	23.888893
879.090271	1144.586914	1561.007324	1258.363037	27.322418
879.385559	1167.342163	1590.588989	1269.740601	24.193552
879.680847	1142.311401	1622.446289	1292.495850	31.279636
879.976196	1178.719727	1640.650513	1260.638550	17.734003
880.271301	1169.617676	1695.262939	1246.985352	14.718610
880.566467	1178.719727	1786.283813	1262.914063	13.857688
880.861572	1185.546387	1806.763550	1353.934937	27.106230
881.156555	1178.719727	1802.212524	1394.894287	34.671539
881.451477	1160.515625	2179.948975	1385.792114	22.098207
881.746460	1185.546387	2655.532715	1449.506714	17.956652
882.041321	1124.107300	3208.484375	1697.538574	27.510920
882.336121	1231.056763	4000.365479	1911.437500	24.568613
882.630798	1178.719727	4414.510254	1997.907227	25.316456
882.925537	1208.301514	4535.112793	2032.040039	24.760603
883.220215	1226.505737	4314.387207	1975.152100	24.244661
883.514771	1192.372925	3982.161377	1931.917114	26.508968
883.809326	1162.791138	3761.435791	1772.630737	23.467604
884.103760	1253.812012	3538.434814	1809.039063	24.302788
884.398132	1221.954712	3297.229736	1667.956787	21.491228
884.692505	1160.515625	3149.320801	1724.844727	28.375282
884.986816	1262.914063	2892.187012	1590.588989	20.111727
885.281067	1135.484863	2858.054199	1629.272949	28.665789
885.575256	1185.546387	2537.205811	1497.292725	23.063971
885.869385	1242.434326	2368.817139	1458.608887	19.191927
886.163452	1217.403687	2161.744873	1431.302612	22.650599
886.457458	1160.515625	2132.163086	1413.098389	25.995310
886.751465	1244.709839	2036.591064	1335.730713	11.494258
887.045410	1162.791138	1913.713013	1351.659302	25.151506
887.339233	1190.097412	1893.233276	1251.536499	8.737868
887.632996	1130.933838	1743.048950	1292.495850	26.394056
887.926758	1160.515625	1690.711914	1299.322388	26.180260
888.220398	1153.689087	1697.538574	1242.434326	16.317978
888.514099	1212.852539	1658.854614	1267.465088	12.244909
888.807678	1135.484863	1749.875488	1285.669312	24.444456
889.101196	1153.689087	1622.446289	1249.260864	20.388332
889.394653	1146.862427	1636.099487	1269.740601	25.116285
889.688049	1208.301514	1608.793213	1290.220337	20.454561
889.981384	1215.128052	1481.364014	1317.526489	38.461536
890.274719	1217.403687	1561.007324	1251.536499	9.933775
890.567932	1196.923950	1554.180664	1158.240112	-10.828023
>>>>>End Processed Spectral Data<<<<<
