Jaz Data File
++++++++++++++++++++++++++++++++++++
Date: Wed Feb 07 06:34:34 2024
User: jaz
Dark Spectrum Present: Yes
Reference Spectrum Present: Yes
Processed Spectrum Present: Yes
Spectrometers: JAZA3692
Integration Time (usec): 40000 (JAZA3692)
Spectra Averaged: 1 (JAZA3692)
Boxcar Smoothing: 0 (JAZA3692)
Correct for Electrical Dark: No (JAZA3692)
Strobe/Lamp Enabled: Yes (JAZA3692)
Correct for Detector Non-linearity: No (JAZA3692)
Correct for Stray Light: No (JAZA3692)
Number of Pixels in Processed Spectrum: 2048
>>>>>Begin Processed Spectral Data<<<<<
W	D	R	S	P
190.244385	0.000000	0.000000	0.000000	0.000000
190.627136	0.000000	0.000000	0.000000	0.000000
191.009842	1424.476074	1381.241089	1285.669312	321.051941
191.392532	1344.832764	1360.761475	1290.220337	-342.855286
191.775177	1369.863525	1378.965576	1249.260864	-1325.005371
192.157791	1410.822876	1438.129150	1319.802124	-333.332733
192.540390	1367.588013	1419.924927	1342.557251	-47.826210
192.922943	1408.547363	1406.271851	1372.139038	1600.005371
193.305481	1335.730713	1406.271851	1324.353149	-16.128977
193.687958	1381.241089	1431.302612	1349.383789	-63.636295
194.070419	1347.108276	1358.485962	1392.618774	399.997864
194.452866	1447.231201	1442.680176	1360.761475	1900.005371
194.835251	1369.863525	1392.618774	1367.588013	-9.999947
195.217621	1367.588013	1344.832764	1378.965576	-49.999733
195.599960	1438.129150	1388.067749	1410.822876	54.545567
195.982254	1456.333252	1442.680176	1356.210449	733.335144
196.364517	1490.466064	1365.312500	1390.343262	79.999962
196.746750	1449.506714	1429.027100	1358.485962	444.445648
197.128952	1390.343262	1353.934937	1319.802124	193.750015
197.511139	1444.955688	1456.333252	1297.046875	-1300.004272
197.893280	1374.414551	1372.139038	1324.353149	2200.005371
198.275391	1399.445313	1340.281738	1392.618774	11.538414
198.657471	1410.822876	1392.618774	1376.690063	187.500671
199.039520	1394.894287	1431.302612	1331.179688	-175.000076
199.421539	1403.996338	1419.924927	1376.690063	-171.429337
199.803513	1435.853638	1440.404663	1369.863525	-1450.005371
200.185471	1406.271851	1381.241089	1397.169800	36.363461
200.567383	1385.792114	1429.027100	1315.250977	-163.157532
200.949265	1456.333252	1431.302612	1401.720825	218.182312
201.331131	1392.618774	1449.506714	1383.516602	-16.000181
201.712967	1378.965576	1401.720825	1246.985352	-579.999023
202.094742	1442.680176	1435.853638	1292.495850	2200.007080
202.476517	1401.720825	1458.608887	1349.383789	-92.000038
202.858231	1408.547363	1378.965576	1385.792114	76.923172
203.239944	1415.373901	1392.618774	1285.669312	570.001587
203.621582	1376.690063	1472.261963	1328.904175	-49.999935
204.003235	1331.179688	1367.588013	1315.250977	-43.750187
204.384827	1328.904175	1444.955688	1335.730713	5.882334
204.766388	1369.863525	1438.129150	1326.628662	-63.333286
205.147934	1351.659302	1447.231201	1269.740601	-85.714211
205.529449	1392.618774	1433.578125	1310.699951	-200.000305
205.910904	1444.955688	1460.884399	1328.904175	-728.568115
206.292343	1360.761475	1476.812988	1338.006226	-19.607887
206.673767	1429.027100	1413.098389	1415.373901	85.714394
207.055115	1456.333252	1390.343262	1274.291626	275.862488
207.436462	1403.996338	1431.302612	1301.597900	-374.999664
207.817780	1431.302612	1390.343262	1365.312500	161.111221
208.199051	1358.485962	1463.159912	1315.250977	-41.304436
208.580307	1424.476074	1422.200562	1306.148926	5200.021484
208.961517	1388.067749	1454.057739	1312.975464	-113.793449
209.342712	1440.404663	1431.302612	1297.046875	1575.005371
209.723846	1390.343262	1463.159912	1356.210449	-46.875011
210.104965	1403.996338	1388.067749	1331.179688	457.144379
210.486069	1426.751587	1447.231201	1344.832764	-400.001801
210.867111	1383.516602	1456.333252	1335.730713	-65.624947
211.248123	1385.792114	1390.343262	1256.087524	-2849.931641
211.629120	1385.792114	1424.476074	1338.006226	-123.528946
212.010071	1456.333252	1474.537476	1290.220337	-912.496582
212.390991	1406.271851	1378.965576	1308.424438	358.333069
212.771881	1349.383789	1397.169800	1322.077637	-57.142567
213.152756	1401.720825	1438.129150	1378.965576	-62.500126
213.533569	1392.618774	1417.649414	1317.526489	-300.001465
213.914368	1331.179688	1429.027100	1319.802124	-11.627864
214.295135	1383.516602	1410.822876	1294.771362	-324.999451
214.675858	1433.578125	1458.608887	1363.036987	-281.817780
215.056549	1417.649414	1415.373901	1347.108276	3100.010742
215.437225	1365.312500	1431.302612	1292.495850	-110.344788
215.817841	1458.608887	1413.098389	1363.036987	209.999680
216.198441	1360.761475	1392.618774	1324.353149	-114.285660
216.579025	1356.210449	1378.965576	1365.312500	40.000000
216.959549	1360.761475	1408.547363	1303.873413	-119.047829
217.340057	1413.098389	1442.680176	1363.036987	-169.230484
217.720535	1378.965576	1360.761475	1424.476074	-250.001343
218.100967	1419.924927	1415.373901	1338.006226	1800.005371
218.481369	1340.281738	1435.853638	1294.771362	-47.618992
218.861740	1401.720825	1458.608887	1347.108276	-96.000015
219.242065	1424.476074	1367.588013	1294.771362	227.999878
219.622391	1338.006226	1510.945801	1331.179688	-3.947355
220.002670	1358.485962	1447.231201	1262.914063	-107.692421
220.382919	1338.006226	1365.312500	1351.659302	49.999775
220.763123	1381.241089	1479.088501	1413.098389	32.558144
221.143295	1378.965576	1358.485962	1374.414551	22.222221
221.523453	1363.036987	1399.445313	1287.944824	-206.249985
221.903549	1406.271851	1485.915039	1331.179688	-94.285728
222.283630	1312.975464	1469.986450	1251.536499	-39.130360
222.663696	1401.720825	1435.853638	1372.139038	-86.666718
223.043701	1376.690063	1385.792114	1328.904175	-525.001343
223.423676	1353.934937	1488.190552	1333.455200	-15.254287
223.803635	1381.241089	1472.261963	1369.863525	-12.499949
224.183548	1394.894287	1442.680176	1342.557251	-109.524040
224.563431	1438.129150	1431.302612	1322.077637	1700.005371
224.943283	1419.924927	1451.782227	1306.148926	-357.142639
225.323105	1388.067749	1372.139038	1290.220337	614.283325
225.702881	1442.680176	1449.506714	1326.628662	-1700.005371
226.082642	1326.628662	1465.435425	1328.904175	1.639338
226.462357	1374.414551	1458.608887	1363.036987	-13.513454
226.842041	1303.873413	1451.782227	1358.485962	36.923119
227.221695	1326.628662	1467.710938	1322.077637	-3.225795
227.601318	1388.067749	1417.649414	1335.730713	-176.923904
227.980911	1419.924927	1488.190552	1315.250977	-153.333328
228.360474	1397.169800	1510.945801	1338.006226	-52.000046
228.739990	1374.414551	1508.670288	1372.139038	-1.694909
229.119476	1372.139038	1504.119263	1338.006226	-25.862066
229.498932	1403.996338	1604.242188	1265.189575	-69.318169
229.878372	1460.884399	1599.691162	1342.557251	-85.245956
230.257736	1358.485962	1702.089600	1312.975464	-13.245057
230.637115	1465.435425	1679.334351	1331.179688	-62.765972
231.016449	1456.333252	1658.854614	1351.659302	-51.685387
231.395737	1363.036987	1599.691162	1365.312500	0.961535
231.774994	1419.924927	1561.007324	1299.322388	-85.483757
232.154221	1449.506714	1608.793213	1381.241089	-42.857132
232.533417	1406.271851	1583.762451	1344.832764	-34.615402
232.912582	1401.720825	1567.833862	1415.373901	8.219148
233.291702	1338.006226	1581.486938	1376.690063	15.887845
233.670792	1374.414551	1611.068726	1360.761475	-5.769210
234.049866	1419.924927	1615.619751	1326.628662	-47.674366
234.428894	1413.098389	1604.242188	1344.832764	-35.714275
234.807892	1351.659302	1495.017212	1342.557251	-6.349179
235.186874	1285.669312	1524.598877	1306.148926	8.571403
235.565781	1460.884399	1601.966675	1306.148926	-109.677475
235.944687	1383.516602	1601.966675	1340.281738	-19.791645
236.323547	1397.169800	1622.446289	1310.699951	-38.383877
236.702377	1383.516602	1665.681274	1281.118164	-36.290310
237.081177	1381.241089	1581.486938	1274.291626	-53.409077
237.459946	1372.139038	1706.640625	1347.108276	-7.483002
237.838669	1422.200562	1615.619751	1306.148926	-60.000065
238.217361	1381.241089	1608.793213	1349.383789	-14.000001
238.596039	1363.036987	1670.232300	1349.383789	-4.444468
238.974670	1385.792114	1622.446289	1340.281738	-19.230751
239.353271	1344.832764	1674.783325	1376.690063	9.655173
239.731842	1347.108276	1611.068726	1338.006226	-3.448263
240.110367	1383.516602	1704.365112	1246.985352	-42.553181
240.488876	1356.210449	1722.569214	1287.944824	-18.633545
240.867340	1458.608887	1806.763550	1344.832764	-32.679764
241.245789	1401.720825	1818.141113	1374.414551	-6.557383
241.624176	1456.333252	1804.488037	1442.680176	-3.921554
242.002548	1394.894287	1904.610962	1365.312500	-5.803575
242.380890	1415.373901	1902.335449	1342.557251	-14.953265
242.759186	1356.210449	1943.294800	1374.414551	3.100764
243.137451	1356.210449	2029.764526	1319.802124	-5.405405
243.515686	1331.179688	2123.060791	1347.108276	2.011487
243.893890	1310.699951	2204.979736	1303.873413	-0.763356
244.272049	1495.017212	2209.530762	1306.148926	-26.433128
244.650192	1447.231201	2054.795166	1324.353149	-20.224710
245.028290	1426.751587	2029.764526	1372.139038	-9.056613
245.406357	1403.996338	1925.090576	1351.659302	-10.043679
245.784393	1394.894287	1904.610962	1372.139038	-4.464293
246.162384	1388.067749	1925.090576	1308.424438	-14.830526
246.540359	1385.792114	2029.764526	1353.934937	-4.946979
246.918289	1403.996338	2134.438477	1394.894287	-1.246101
247.296204	1378.965576	2218.632813	1390.343262	1.355023
247.674057	1394.894287	2473.491211	1451.782227	5.274254
248.051895	1383.516602	2769.308838	1399.445313	1.149430
248.429703	1376.690063	2805.717041	1460.884399	5.891725
248.807465	1315.250977	2810.268311	1472.261963	10.502285
249.185196	1392.618774	2582.716064	1406.271851	1.147224
249.562897	1340.281738	2416.603027	1458.608887	10.993664
249.940567	1367.588013	2341.510986	1415.373901	4.906537
250.318192	1419.924927	2214.081787	1458.608887	4.871073
250.695801	1399.445313	2157.193604	1426.751587	3.603607
251.073349	1449.506714	2066.172852	1390.343262	-9.594082
251.450882	1392.618774	1972.876587	1301.597900	-15.686281
251.828400	1406.271851	2020.662476	1278.842651	-20.740746
252.205872	1358.485962	2107.132324	1344.832764	-1.823718
252.583313	1378.965576	2118.509766	1331.179688	-6.461533
252.960693	1381.241089	2164.020264	1351.659302	-3.779072
253.338074	1374.414551	2234.561523	1394.894287	2.380958
253.715408	1415.373901	2216.357178	1372.139038	-5.397724
254.092682	1360.761475	2091.203613	1306.148926	-7.476643
254.469955	1390.343262	2093.479248	1312.975464	-11.003248
254.847198	1369.863525	2000.182739	1347.108276	-3.610115
255.224365	1422.200562	1991.080688	1358.485962	-11.200005
255.601563	1408.547363	1950.121338	1394.894287	-2.520999
255.978683	1413.098389	2047.968750	1294.771362	-18.637983
256.355743	1424.476074	1961.498901	1365.312500	-11.016957
256.732819	1390.343262	2043.417725	1408.547363	2.787446
257.109894	1349.383789	2043.417725	1383.516602	4.918032
257.486877	1415.373901	2004.733887	1417.649414	0.386099
257.863831	1426.751587	2009.284912	1324.353149	-17.578125
258.240753	1422.200562	2150.367188	1342.557251	-10.937511
258.617645	1374.414551	2273.245361	1372.139038	-0.253164
258.994507	1444.955688	2316.480225	1269.740601	-20.104435
259.371307	1349.383789	2423.429688	1306.148926	-4.025421
259.748108	1372.139038	2491.695313	1417.649414	4.065037
260.124878	1394.894287	2764.757813	1381.241089	-0.996683
260.501617	1347.108276	3053.749023	1401.720825	3.200003
260.878296	1390.343262	3258.545898	1424.476074	1.827040
261.254944	1394.894287	3358.668701	1463.159912	3.476246
261.631561	1415.373901	3358.668701	1447.231201	1.639345
262.008179	1372.139038	2833.023438	1399.445313	1.869161
262.384735	1388.067749	2760.206787	1454.057739	4.809278
262.761261	1422.200562	2512.175049	1376.690063	-4.175373
263.137695	1406.271851	2389.296875	1367.588013	-3.935184
263.514191	1369.863525	2512.175049	1422.200562	4.581678
263.890594	1390.343262	2446.184814	1340.281738	-4.741386
264.267029	1397.169800	2352.888428	1319.802124	-8.095236
264.643341	1306.148926	2468.940186	1401.720825	8.219179
265.019653	1331.179688	2371.092773	1424.476074	8.971556
265.395935	1397.169800	2255.041016	1342.557251	-6.366055
265.772217	1392.618774	2248.214600	1351.659302	-4.787245
266.148407	1410.822876	2357.439453	1365.312500	-4.807688
266.524597	1378.965576	2423.429688	1349.383789	-2.832245
266.900726	1347.108276	2375.643799	1378.965576	3.097346
267.276855	1326.628662	2600.920166	1451.782227	9.821424
267.652924	1340.281738	2646.430664	1372.139038	2.439025
268.028992	1376.690063	2755.655762	1381.241089	0.330032
268.404999	1403.996338	2691.941162	1390.343262	-1.060067
268.781006	1417.649414	2673.737061	1353.934937	-5.072455
269.156921	1381.241089	2594.093750	1383.516602	0.187617
269.532837	1383.516602	2657.808350	1399.445313	1.250005
269.908661	1338.006226	2671.461426	1417.649414	5.972693
270.284546	1290.220337	2589.542725	1344.832764	4.203147
270.660339	1410.822876	2534.930176	1335.730713	-6.680160
271.036133	1303.873413	2685.114502	1383.516602	5.766060
271.411835	1347.108276	2833.023438	1406.271851	3.981625
271.787537	1351.659302	2939.972900	1406.271851	3.438398
272.163239	1444.955688	3160.698486	1408.547363	-2.122015
272.538849	1401.720825	3340.464600	1394.894287	-0.352111
272.914459	1340.281738	3217.586426	1392.618774	2.787882
273.290070	1344.832764	3206.208740	1429.027100	4.523231
273.665588	1338.006226	3024.167236	1399.445313	3.643726
274.041046	1390.343262	3005.962891	1495.017212	6.478873
274.416565	1392.618774	3049.197754	1460.884399	4.120880
274.791962	1419.924927	3021.891602	1408.547363	-0.710225
275.167389	1351.659302	2812.543701	1369.863525	1.246110
275.542755	1426.751587	2789.788574	1367.588013	-4.340570
275.918060	1467.710938	2835.298828	1369.863525	-7.154744
276.293365	1472.261963	2862.605225	1460.884399	-0.818328
276.668640	1419.924927	2899.013428	1481.364014	4.153848
277.043854	1326.628662	2978.656738	1424.476074	5.922866
277.419037	1365.312500	3010.513916	1399.445313	2.074689
277.794189	1306.148926	3030.993652	1424.476074	6.860162
278.169312	1417.649414	3012.789551	1520.047852	6.419401
278.544373	1408.547363	3040.095703	1440.404663	1.952581
278.919464	1353.934937	2967.279053	1399.445313	2.820872
279.294464	1344.832764	2942.248291	1403.996338	3.703706
279.669464	1360.761475	2951.350586	1433.578125	4.577967
280.044403	1340.281738	2942.248291	1419.924927	4.971589
280.419312	1312.975464	3003.687500	1429.027100	6.864069
280.794189	1435.853638	3099.259277	1435.853638	0.000000
281.169037	1344.832764	3028.718262	1372.139038	1.621623
281.543854	1438.129150	3203.933350	1515.496826	4.381442
281.918671	1413.098389	3176.626953	1447.231201	1.935484
282.293365	1417.649414	3338.188965	1433.578125	0.829387
282.668091	1376.690063	3511.128662	1449.506714	3.411513
283.042786	1399.445313	3572.567627	1499.568237	4.607330
283.417419	1301.597900	3508.853027	1499.568237	8.969073
283.792053	1381.241089	3545.261475	1426.751587	2.103053
284.166595	1394.894287	3297.229736	1465.435425	3.708133
284.541138	1360.761475	3399.628174	1356.210449	-0.223213
284.915619	1431.302612	3244.892578	1406.271851	-1.380178
285.290100	1335.730713	3456.516113	1438.129150	4.828326
285.664520	1431.302612	3490.648926	1451.782227	0.994472
286.038940	1408.547363	3540.710449	1369.863525	-1.814300
286.413300	1356.210449	3765.986816	1481.364014	5.193576
286.787628	1394.894287	3884.313965	1533.701050	5.575868
287.161896	1333.455200	3868.385254	1526.874512	7.630163
287.536194	1344.832764	3836.528076	1465.435425	4.840185
287.910400	1308.424438	3754.609375	1460.884399	6.232560
288.284607	1372.139038	3606.700439	1460.884399	3.971489
288.658752	1385.792114	3497.475586	1401.720825	0.754313
289.032867	1378.965576	3376.872803	1458.608887	3.986337
289.406921	1342.557251	3486.097900	1501.843750	7.431000
289.781006	1415.373901	3481.546875	1424.476074	0.440533
290.154999	1454.057739	3549.812500	1422.200562	-1.520081
290.529022	1422.200562	3620.353516	1458.608887	1.656314
290.902954	1438.129150	3756.884766	1567.833862	5.593720
291.276825	1317.526489	3884.313965	1510.945801	7.535462
291.650757	1363.036987	3973.059326	1499.568237	5.231037
292.024597	1403.996338	3913.895752	1474.537476	2.810517
292.398407	1397.169800	3831.977051	1469.986450	2.990654
292.772156	1399.445313	3802.395264	1488.190552	3.693179
293.145905	1388.067749	3561.189941	1501.843750	5.235601
293.519592	1349.383789	3577.118652	1483.639526	6.026558
293.893280	1406.271851	3611.251465	1467.710938	2.786379
294.266907	1397.169800	3763.711426	1565.558350	7.115386
294.640533	1410.822876	3759.160400	1492.741699	3.488375
295.014069	1344.832764	3957.130615	1490.466064	5.574912
295.387604	1454.057739	4148.274414	1481.364014	1.013514
295.761078	1392.618774	4173.305176	1501.843750	3.927986
296.134552	1467.710938	4098.212891	1520.047852	1.989617
296.507996	1333.455200	4123.243652	1531.425537	7.096249
296.881378	1408.547363	4114.141602	1463.159912	2.018505
297.254730	1403.996338	4398.581543	1517.772339	3.799391
297.628021	1403.996338	4603.378418	1479.088501	2.347083
298.001282	1367.588013	4808.175293	1570.109375	5.886244
298.374573	1390.343262	4683.021973	1485.915039	2.902554
298.747803	1458.608887	4566.970215	1506.394775	1.537334
299.121002	1383.516602	4371.275391	1565.558350	6.092920
299.494141	1376.690063	4202.886719	1483.639526	3.784219
299.867188	1385.792114	4150.549805	1465.435425	2.880661
300.240265	1417.649414	4014.018799	1515.496826	3.768625
300.613312	1331.179688	3847.905762	1490.466064	6.329111
300.986328	1322.077637	3847.905762	1454.057739	5.225221
301.359314	1372.139038	3841.079102	1508.670288	5.529954
301.732239	1422.200562	3804.670898	1499.568237	3.247372
302.105103	1378.965576	3895.691650	1490.466064	4.430378
302.477997	1365.312500	3879.762939	1483.639526	4.705880
302.850830	1438.129150	3998.090088	1488.190552	1.955553
303.223602	1422.200562	3809.221924	1438.129150	0.667300
303.596375	1319.802124	3804.670898	1394.894287	3.021977
303.969116	1438.129150	3643.108887	1488.190552	2.270379
304.341766	1417.649414	3606.700439	1458.608887	1.871106
304.714478	1383.516602	3722.751953	1495.017212	4.766541
305.087067	1378.965576	3645.384277	1415.373901	1.606425
305.459656	1383.516602	3752.333740	1563.282837	7.588861
305.832214	1347.108276	3581.669678	1419.924927	3.258655
306.204681	1335.730713	3604.425049	1492.741699	6.920764
306.577148	1358.485962	3663.588379	1444.955688	3.751231
306.949646	1335.730713	3711.374512	1524.598877	7.950189
307.322021	1419.924927	3709.098877	1463.159912	1.888672
307.694397	1424.476074	3597.598389	1417.649414	-0.314141
308.066742	1365.312500	3750.058350	1495.017212	5.438932
308.439026	1356.210449	3775.089111	1485.915039	5.362178
308.811279	1374.414551	3841.079102	1378.965576	0.184501
309.183502	1356.210449	4041.324951	1458.608887	3.813560
309.555695	1460.884399	3975.334961	1474.537476	0.542984
309.927887	1335.730713	4014.018799	1456.333252	4.502971
310.299988	1381.241089	4125.519043	1433.578125	1.907133
310.672058	1440.404663	4164.203125	1497.292725	2.088556
311.044128	1308.424438	4136.896973	1524.598877	7.642797
311.416168	1399.445313	4161.927734	1524.598877	4.530475
311.788147	1392.618774	4209.713379	1531.425537	4.927302
312.160065	1410.822876	4166.478516	1481.364014	2.559868
312.531982	1312.975464	4093.661865	1467.710938	5.564650
312.903870	1338.006226	4011.743164	1547.354126	7.829787
313.275696	1431.302612	3825.150391	1458.608887	1.140686
313.647491	1438.129150	3875.211914	1444.955688	0.280111
314.019318	1419.924927	3984.437012	1476.812988	2.218280
314.391022	1388.067749	3850.181152	1467.710938	3.234749
314.762726	1342.557251	4050.427002	1460.884399	4.369750
315.134369	1347.108276	4061.804688	1419.924927	2.682313
315.505981	1308.424438	4105.039551	1497.292725	6.753460
315.877594	1415.373901	4148.274414	1529.150024	4.163200
316.249146	1351.659302	4136.896973	1472.261963	4.330067
316.620636	1435.853638	3959.406250	1435.853638	0.000000
316.992157	1340.281738	3886.589600	1499.568237	6.255587
317.363586	1292.495850	3756.884766	1438.129150	5.909510
317.735016	1399.445313	3786.466553	1417.649414	0.762628
318.106354	1378.965576	3704.547852	1504.119263	5.381607
318.477722	1415.373901	3695.445801	1458.608887	1.896212
318.849060	1381.241089	3877.487549	1431.302612	2.005472
319.220306	1417.649414	3866.109863	1479.088501	2.509295
319.591522	1358.485962	3929.824463	1510.945801	5.929202
319.962738	1492.741699	3909.344727	1485.915039	-0.282490
320.333923	1372.139038	3941.202148	1460.884399	3.454386
320.705017	1390.343262	3902.518066	1479.088501	3.532606
321.076111	1369.863525	3904.793701	1424.476074	2.154401
321.447144	1369.863525	3734.129639	1406.271851	1.539942
321.818176	1331.179688	3674.966064	1433.578125	4.368932
322.189178	1376.690063	3661.312988	1433.578125	2.490041
322.560120	1344.832764	3645.384277	1454.057739	4.747774
322.931030	1265.189575	3857.007813	1463.159912	7.638280
323.301910	1310.699951	3913.895752	1456.333252	5.594404
323.672729	1401.720825	4177.855957	1442.680176	1.475409
324.043549	1358.485962	4207.437988	1481.364014	4.313097
324.414337	1376.690063	4516.908691	1476.812988	3.188406
324.785095	1342.557251	4671.644043	1417.649414	2.255638
325.155792	1353.934937	4437.265625	1492.741699	4.501845
325.526428	1403.996338	4557.868164	1469.986450	2.092352
325.897034	1394.894287	4353.071289	1492.741699	3.307693
326.267670	1381.241089	4480.500488	1490.466064	3.524228
326.638184	1385.792114	4430.438965	1469.986450	2.765323
327.008728	1353.934937	4421.336914	1426.751587	2.373887
327.379211	1403.996338	4564.694824	1390.343262	-0.431964
327.749634	1356.210449	4384.928711	1467.710938	3.681441
328.120026	1424.476074	4307.561035	1463.159912	1.341752
328.490417	1338.006226	4189.233887	1410.822876	2.553870
328.860748	1410.822876	4159.651855	1419.924927	0.331125
329.231079	1417.649414	4084.559814	1369.863525	-1.791807
329.601318	1335.730713	4020.845215	1406.271851	2.627118
329.971558	1381.241089	4200.611328	1460.884399	2.824862
330.341736	1385.792114	4105.039551	1538.252075	5.606697
330.711914	1363.036987	4282.530273	1501.843750	4.754481
331.082062	1429.027100	4296.183105	1490.466064	2.142854
331.452148	1385.792114	4243.846191	1388.067749	0.079622
331.822174	1381.241089	4150.549805	1388.067749	0.246511
332.192200	1385.792114	4357.622559	1426.751587	1.378257
332.562134	1397.169800	4419.061523	1431.302612	1.129518
332.932129	1410.822876	4346.244629	1472.261963	2.093024
333.302063	1347.108276	4500.979980	1424.476074	2.453105
333.671906	1401.720825	4635.235840	1431.302612	0.914849
334.041718	1358.485962	4626.133789	1444.955688	2.646238
334.411499	1390.343262	4708.052734	1451.782227	1.851849
334.781281	1390.343262	4662.541992	1476.812988	2.642557
335.151001	1360.761475	4719.430176	1499.568237	4.132791
335.520721	1360.761475	4662.541992	1520.047852	4.824257
335.890350	1381.241089	4537.388672	1488.190552	3.388608
336.259979	1322.077637	4642.062500	1419.924927	2.947221
336.629547	1324.353149	4617.031738	1440.404663	3.524532
336.999084	1349.383789	4553.316895	1417.649414	2.130682
337.368622	1367.588013	4562.419434	1483.639526	3.632477
337.738098	1392.618774	4712.603516	1454.057739	1.850580
338.107513	1415.373901	4607.929688	1426.751587	0.356382
338.476898	1424.476074	4664.817871	1408.547363	-0.491575
338.846252	1447.231201	4607.929688	1399.445313	-1.511878
339.215576	1397.169800	4710.328125	1410.822876	0.412086
339.584869	1376.690063	4671.644043	1433.578125	1.726521
339.954132	1444.955688	4701.226074	1463.159912	0.559051
340.323334	1474.537476	4612.480469	1444.955688	-0.942713
340.692505	1403.996338	4455.469727	1490.466064	2.833704
341.061646	1385.792114	4464.571777	1440.404663	1.773837
341.430786	1358.485962	4537.388672	1417.649414	1.861128
341.799896	1369.863525	4548.766113	1435.853638	2.075877
342.168915	1344.832764	4623.858398	1442.680176	2.984039
342.537903	1431.302612	4796.797852	1451.782227	0.608517
342.906830	1374.414551	4958.359863	1469.986450	2.666667
343.275757	1401.720825	4910.573730	1419.924927	0.518805
343.644684	1372.139038	4826.379395	1497.292725	3.623190
344.013550	1365.312500	5001.594727	1517.772339	4.192739
344.382355	1367.588013	5238.249023	1549.629639	4.703115
344.751129	1385.792114	5276.932617	1599.691162	5.497078
345.119873	1426.751587	5486.280762	1456.333252	0.728697
345.488586	1392.618774	5670.597656	1576.935913	4.308510
345.857269	1360.761475	5854.915039	1490.466064	2.886074
346.225891	1403.996338	6025.579102	1479.088501	1.624815
346.594482	1392.618774	5959.588867	1549.629639	3.437966
346.963043	1419.924927	5879.945801	1506.394775	1.938777
347.331543	1426.751587	5604.607910	1490.466064	1.525052
347.700043	1397.169800	5415.739746	1479.088501	2.038504
348.068512	1378.965576	5217.769043	1476.812988	2.548904
348.436951	1419.924927	5190.462891	1510.945801	2.414002
348.805328	1406.271851	5115.370605	1497.292725	2.453989
349.173645	1358.485962	5129.023926	1499.568237	3.741701
349.541931	1454.057739	5106.268555	1417.649414	-0.996885
349.910217	1374.414551	5283.759277	1472.261963	2.502911
350.278473	1381.241089	5361.126953	1499.568237	2.973129
350.646667	1392.618774	5497.658203	1535.976563	3.492239
351.014801	1413.098389	5424.841797	1492.741699	1.985254
351.382935	1392.618774	5422.565918	1517.772339	3.105588
351.751007	1312.975464	5563.648438	1495.017212	4.282657
352.119049	1365.312500	5436.219238	1510.945801	3.577417
352.487091	1324.353149	5465.800781	1542.803101	5.274724
352.855072	1369.863525	5618.260742	1472.261963	2.410284
353.222992	1381.241089	5552.270996	1488.190552	2.564102
353.590881	1326.628662	5707.006348	1458.608887	3.012987
353.958740	1422.200562	5779.822754	1529.150024	2.454308
354.326599	1340.281738	6116.600098	1604.242188	5.526442
354.694397	1408.547363	6084.742676	1474.537476	1.411192
355.062134	1397.169800	6282.712891	1499.568237	2.095948
355.429840	1378.965576	6284.988281	1533.701050	3.153990
355.797516	1358.485962	6335.049805	1520.047852	3.246455
356.165192	1319.802124	6635.418457	1554.180664	4.409245
356.532776	1385.792114	6794.705078	1563.282837	3.281449
356.900360	1472.261963	6924.409668	1533.701050	1.126879
357.267883	1388.067749	7033.634766	1611.068726	3.950019
357.635376	1449.506714	7393.166992	1624.721802	2.947932
358.002808	1322.077637	7848.271484	1565.558350	3.730823
358.370270	1440.404663	8116.782715	1638.375000	2.965236
358.737640	1328.904175	7977.976074	1601.966675	4.106776
359.105011	1356.210449	7968.874023	1629.272949	4.129387
359.472321	1290.220337	7520.596191	1586.037964	4.747990
359.839569	1374.414551	7290.768555	1611.068726	4.000000
360.206787	1367.588013	7361.309570	1595.140137	3.796508
360.574005	1392.618774	7616.167969	1586.037964	3.107860
360.941193	1353.934937	7943.843262	1583.762451	3.487568
361.308319	1408.547363	8519.549805	1606.517700	2.784000
361.675415	1374.414551	9079.328125	1636.099487	3.396338
362.042450	1449.506714	9639.106445	1727.120239	3.389830
362.409424	1353.934937	10053.250977	1699.814087	3.975935
362.776428	1433.578125	10248.945313	1761.253052	3.717088
363.143402	1360.761475	9905.341797	1597.415649	2.769641
363.510284	1433.578125	9184.001953	1620.170776	2.407516
363.877136	1322.077637	8508.171875	1631.548462	4.306523
364.243988	1385.792114	7818.689453	1520.047852	2.087018
364.610779	1390.343262	7638.923340	1631.548462	3.860160
364.977539	1440.404663	7454.605957	1581.486938	2.345819
365.344269	1438.129150	7217.952148	1636.099487	3.425197
365.710938	1381.241089	7327.176758	1501.843750	2.028321
366.077576	1287.944824	7054.114258	1538.252075	4.340962
366.444183	1358.485962	6903.930176	1595.140137	4.267542
366.810760	1374.414551	6851.593262	1595.140137	4.029914
367.177277	1460.884399	7072.318848	1513.221313	0.932683
367.543823	1424.476074	7026.808105	1620.170776	3.493093
367.910248	1265.189575	6990.399902	1540.527588	4.809221
368.276642	1310.699951	6851.593262	1670.232300	6.488707
368.643036	1294.771362	6844.766602	1606.517700	5.617056
369.009399	1397.169800	6535.295898	1561.007324	3.188663
369.375671	1351.659302	6521.642578	1613.344238	5.061620
369.741974	1394.894287	6482.958984	1656.579102	5.143111
370.108215	1399.445313	6505.713867	1497.292725	1.916221
370.474396	1383.516602	6467.030273	1535.976563	2.999106
370.840546	1328.904175	6646.796387	1595.140137	5.006419
371.206665	1333.455200	6787.878418	1574.660400	4.422194
371.572784	1385.792114	6835.664551	1576.935913	3.507308
371.938843	1442.680176	7013.155273	1581.486938	2.491830
372.304840	1392.618774	7040.461426	1586.037964	3.424656
372.670807	1347.108276	7097.349609	1601.966675	4.432134
373.036713	1306.148926	6990.399902	1613.344238	5.404324
373.402649	1394.894287	6819.735840	1656.579102	4.823824
373.768524	1424.476074	6958.542480	1629.272949	3.700658
374.134308	1447.231201	6822.011230	1631.548462	3.429299
374.500122	1360.761475	6999.501953	1631.548462	4.802260
374.865875	1349.383789	7145.135254	1636.099487	4.946998
375.231567	1417.649414	7010.879395	1626.997314	3.742880
375.597260	1415.373901	7256.635742	1583.762451	2.882743
375.962891	1383.516602	7211.125488	1695.262939	5.349473
376.328461	1394.894287	7511.494141	1686.160889	4.761904
376.694031	1401.720825	7714.015625	1677.058838	4.361932
377.059540	1413.098389	7946.118652	1699.814087	4.388716
377.425049	1435.853638	8241.936523	1743.048950	4.513540
377.790497	1429.027100	8437.630859	1715.742676	4.090909
378.155945	1403.996338	8769.857422	1806.763550	5.468026
378.521301	1290.220337	8772.132813	1763.528564	6.326033
378.886597	1326.628662	8592.366211	1756.702026	5.919198
379.251892	1369.863525	8096.303223	1747.599976	5.615697
379.617157	1374.414551	7873.301758	1754.426514	5.847339
379.982422	1358.485962	7650.300781	1729.395752	5.895116
380.347595	1301.597900	7465.983887	1686.160889	6.238464
380.712738	1363.036987	7336.279297	1704.365112	5.714286
381.077820	1406.271851	7568.382324	1749.875488	5.576071
381.442902	1385.792114	7347.656738	1690.711914	5.114504
381.807953	1388.067749	7575.208984	1683.885376	4.781168
382.172974	1449.506714	7611.617188	1695.262939	3.988183
382.537933	1356.210449	7618.443848	1677.058838	5.123546
382.902832	1342.557251	7440.953125	1768.079712	6.977613
383.267700	1347.108276	7745.873047	1806.763550	7.183500
383.632538	1392.618774	7800.485352	1770.355225	5.894886
383.997345	1349.383789	7971.149414	1777.181763	6.460482
384.362152	1317.526489	8132.711426	1788.559326	6.911520
384.726898	1413.098389	8194.150391	1790.834839	5.570470
385.091553	1422.200562	8403.498047	1868.202637	6.388527
385.456238	1374.414551	8237.385742	1868.202637	7.194961
385.820862	1378.965576	8055.343750	1845.447388	6.987049
386.185425	1347.108276	8360.263672	1824.967651	6.813757
386.549988	1360.761475	8328.406250	1877.304688	7.413455
386.914490	1388.067749	8373.916992	1920.539551	7.622149
387.278961	1308.424438	8385.293945	1831.794189	7.395498
387.643372	1422.200562	8483.141602	1970.601074	7.766677
388.007782	1365.312500	8580.989258	1863.651489	6.906337
388.372101	1324.353149	8551.407227	1950.121338	8.658689
388.736450	1390.343262	8460.386719	1984.254150	8.400385
389.100739	1417.649414	8464.937500	1861.375977	6.296416
389.464966	1378.965576	8398.947266	1947.845825	8.103728
389.829163	1344.832764	8328.406250	1945.570313	8.602152
390.193329	1472.261963	8537.753906	1954.672363	6.827697
390.557495	1413.098389	8408.049805	1900.059814	6.961613
390.921570	1397.169800	8676.560547	2020.662476	8.565177
391.285614	1408.547363	8626.499023	2052.519775	8.921817
391.649597	1440.404663	9407.002930	2173.122314	9.197371
392.013550	1376.690063	9814.321289	2143.540527	9.088457
392.377502	1374.414551	9825.699219	2168.571289	9.396875
392.741455	1342.557251	9689.167969	2143.540527	9.596510
393.105316	1378.965576	9873.484375	2277.796387	10.581304
393.469086	1424.476074	9550.360352	2250.489990	10.165218
393.832886	1358.485962	9347.839844	2200.428711	10.538308
394.196655	1338.006226	9370.594727	2127.612061	9.830029
394.560333	1401.720825	9486.646484	2223.183838	10.160427
394.924042	1326.628662	9777.913086	2355.164063	12.170167
395.287659	1403.996338	9752.881836	2323.306641	11.011173
395.651245	1403.996338	9707.372070	2296.000488	10.742668
396.014771	1435.853638	9545.809570	2161.744873	8.950619
396.378296	1413.098389	9224.960938	2252.765625	10.748618
396.741791	1381.241089	8965.551758	2227.734863	11.161117
397.105255	1374.414551	8788.061523	2209.530762	11.264580
397.468628	1363.036987	8683.387695	2204.979736	11.501399
397.832001	1381.241089	8644.703125	2193.602051	11.184212
398.195313	1338.006226	8685.663086	2245.938965	12.356766
398.558624	1381.241089	8849.500000	2291.449463	12.187692
398.921844	1385.792114	8756.204102	2248.214600	11.701143
399.285095	1363.036987	8726.622070	2382.470215	13.844252
399.648254	1324.353149	8774.408203	2346.062012	13.714111
400.011383	1415.373901	8765.305664	2325.582275	12.383903
400.374451	1399.445313	8521.825195	2318.755615	12.907348
400.737549	1383.516602	9147.593750	2357.439453	12.543962
401.100586	1367.588013	8781.234375	2414.327637	14.119093
401.463562	1326.628662	8599.193359	2321.031250	13.673342
401.826508	1388.067749	9013.337891	2391.572266	13.160249
402.189392	1360.761475	8831.295898	2405.225586	13.981117
402.552246	1353.934937	8753.928711	2457.562500	14.913898
402.915070	1376.690063	8835.847656	2468.940186	14.643076
403.277893	1442.680176	9147.593750	2427.980713	12.787951
403.640656	1440.404663	9234.063477	2430.256104	12.700728
404.003326	1431.302612	9491.197266	2525.828125	13.579899
404.366028	1388.067749	9682.340820	2653.257324	15.253772
404.728699	1397.169800	9980.434570	2673.737061	14.872747
405.091248	1349.383789	10308.109375	2746.553711	15.595633
405.453857	1374.414551	10178.404297	2698.767578	15.042645
405.816345	1390.343262	10185.231445	2710.145264	15.006466
406.178833	1394.894287	10114.690430	2680.563477	14.744258
406.541260	1367.588013	10269.425781	2716.971924	15.158486
406.903687	1328.904175	9695.994141	2760.206787	17.106337
407.266052	1310.699951	9755.157227	2735.176025	16.868771
407.628387	1408.547363	9823.422852	2746.553711	15.900490
407.990662	1408.547363	9579.942383	2625.950928	14.898356
408.352905	1347.108276	9618.625977	2735.176025	16.781294
408.715118	1413.098389	9668.687500	2707.869873	15.683576
409.077332	1413.098389	9645.932617	2769.308838	16.473190
409.439484	1363.036987	9725.576172	2753.380127	16.625849
409.801575	1435.853638	9693.718750	2769.308838	16.147699
410.163605	1374.414551	9941.750000	2785.237549	16.467464
410.525635	1308.424438	9991.811523	2889.911377	18.212790
410.887604	1406.271851	10139.720703	2946.799316	17.639393
411.249573	1349.383789	10276.251953	2896.738037	17.333673
411.611481	1442.680176	10162.475586	2985.483398	17.693113
411.973328	1413.098389	10255.772461	2962.728027	17.524446
412.335144	1408.547363	10010.015625	2930.870850	17.698414
412.696930	1401.720825	10126.067383	2819.370361	16.249350
413.058685	1367.588013	9595.871094	2844.401123	17.948009
413.420410	1422.200562	9959.954102	2951.350586	17.910448
413.782104	1381.241089	10073.730469	2910.391113	17.591623
414.143707	1353.934937	10071.455078	2830.747803	16.940744
414.505310	1344.832764	10023.668945	2873.982666	17.619297
414.866852	1378.965576	10160.200195	2914.942139	17.491579
415.228394	1390.343262	10496.977539	2958.177002	17.216391
415.589874	1358.485962	10522.007813	2917.217773	17.010183
415.951324	1451.782227	10435.538086	2987.758789	17.097265
416.312683	1378.965576	10888.367188	2978.656738	16.822206
416.674072	1390.343262	11245.624023	3042.371338	16.762871
417.035370	1413.098389	11379.879883	3126.565674	17.191782
417.396667	1367.588013	11250.174805	3030.993652	16.831682
417.757935	1408.547363	11618.809570	3188.004639	17.428125
418.119141	1394.894287	12242.301758	3235.790527	16.970840
418.480286	1369.863525	12376.557617	3411.005615	18.544552
418.841400	1360.761475	12979.570313	3401.903564	17.567568
419.202484	1413.098389	13311.796875	3506.577637	17.594187
419.563568	1435.853638	13828.339844	3527.057129	16.874771
419.924591	1415.373901	14529.200195	3665.864014	17.161201
420.285553	1331.179688	14586.087891	3654.486328	17.527897
420.646484	1390.343262	15689.715820	3811.497314	16.931890
421.007355	1392.618774	15871.757813	3934.375488	17.554613
421.368225	1342.557251	16888.916016	4068.631104	17.535128
421.729065	1401.720825	17325.814453	4116.416992	17.047729
422.089874	1365.312500	18090.390625	4389.479492	18.081631
422.450592	1322.077637	17860.562500	4355.346680	18.340672
422.811279	1383.516602	17555.642578	4548.766113	19.572254
423.171936	1344.832764	17357.671875	4425.888184	19.241158
423.532593	1378.965576	16775.138672	4366.724609	19.405855
423.893127	1356.210449	17450.968750	4526.010742	19.694613
424.253723	1381.241089	17780.919922	4480.500488	18.898291
424.614197	1433.578125	17901.521484	4526.010742	18.778500
424.974670	1381.241089	18420.341797	4780.869141	19.951920
425.335052	1322.077637	18811.730469	4753.562988	19.620089
425.695496	1381.241089	17758.164063	4728.532227	20.439072
426.055817	1392.618774	18076.736328	4730.807617	20.008184
426.416168	1401.720825	17633.009766	4673.919922	20.159824
426.776398	1381.241089	16750.109375	4546.490723	20.595201
427.136627	1426.751587	16153.921875	4494.153809	20.828186
427.496826	1399.445313	15619.174805	4394.030762	21.059370
427.856995	1356.210449	15232.335938	4257.499512	20.908497
428.217102	1408.547363	14661.180664	4198.335938	21.050825
428.577179	1356.210449	14779.507813	4145.999023	20.783184
428.937195	1365.312500	14622.497070	4241.570801	21.695847
429.297180	1342.557251	14165.117188	4020.845215	20.887312
429.657135	1319.802124	13691.808594	3954.855225	21.298512
430.017059	1403.996338	14149.188477	4098.212891	21.139082
430.376984	1392.618774	13823.789063	3945.753174	20.538166
430.736786	1410.822876	13778.278320	3961.681641	20.625576
431.096588	1322.077637	13562.103516	3804.670898	20.282583
431.456360	1424.476074	13500.665039	3852.456787	20.105520
431.816071	1381.241089	13307.246094	3795.568604	20.244228
432.175781	1394.894287	13448.328125	3857.007813	20.426657
432.535400	1301.597900	13559.828125	4084.559814	22.702803
432.895020	1324.353149	13163.887695	3936.650879	22.064194
433.254578	1401.720825	13457.429688	4027.671875	21.781807
433.614105	1435.853638	13787.380859	4107.314941	21.628592
433.973602	1458.608887	14001.279297	4248.397461	22.242382
434.333038	1363.036987	14014.932617	4139.172363	21.942446
434.692444	1344.832764	14322.127930	4378.102051	23.373663
435.051819	1374.414551	14492.791992	4264.326172	22.029491
435.411133	1424.476074	14574.710938	4500.979980	23.395050
435.770416	1492.741699	13634.920898	4273.428223	22.901049
436.129669	1363.036987	14347.158203	4498.704590	24.150017
436.488861	1342.557251	14087.749023	4494.153809	24.727732
436.848083	1317.526489	14083.198242	4607.929688	25.775402
437.207184	1356.210449	13830.615234	4457.745117	24.863188
437.566254	1324.353149	14285.719727	4708.052734	26.106043
437.925293	1454.057739	14222.004883	4662.541992	25.129211
438.284363	1324.353149	14338.056641	4771.767090	26.490646
438.643311	1351.659302	14706.691406	4871.890137	26.358835
439.002258	1419.924927	14718.068359	4880.992188	26.026695
439.361145	1388.067749	15075.325195	5099.441895	27.115541
439.719971	1388.067749	15564.562500	5352.024902	27.961473
440.078827	1417.649414	15676.062500	5499.933594	28.630705
440.437592	1342.557251	16137.993164	5443.045898	27.714552
440.796295	1347.108276	16015.115234	5661.495605	29.413589
441.155029	1338.006226	17460.070313	5918.629395	28.412138
441.513672	1381.241089	17972.062500	6005.099609	27.869978
441.872253	1385.792114	17667.142578	6055.160645	28.679247
442.230865	1399.445313	17405.458984	5923.180664	28.262724
442.589386	1394.894287	17155.150391	5911.803223	28.660126
442.947876	1403.996338	17248.447266	6009.650391	29.067932
443.306335	1376.690063	16893.466797	5968.690918	29.593782
443.664764	1301.597900	16046.972656	5722.935059	29.984568
444.023102	1360.761475	16556.689453	5907.251953	29.919136
444.381500	1365.312500	16490.699219	5952.762207	30.329470
444.739777	1358.485962	16131.166992	6011.925781	31.500309
445.098022	1408.547363	16297.280273	6027.854492	31.025522
445.456238	1356.210449	16322.310547	5975.517578	30.865137
445.814423	1403.996338	17268.927734	6339.601074	31.110153
446.172577	1351.659302	17896.970703	6535.295898	31.329945
446.530701	1438.129150	17655.765625	6398.764648	30.587908
446.888733	1413.098389	18465.851563	6448.826172	29.530289
447.246765	1417.649414	19273.662109	6944.889648	30.954506
447.604736	1458.608887	18754.841797	6822.011230	31.009079
447.962677	1394.894287	18914.128906	6897.103516	31.406675
448.320587	1424.476074	19369.232422	6826.562500	30.103985
448.678436	1403.996338	18973.292969	6960.818359	31.628029
449.036255	1369.863525	18795.802734	6794.705078	31.130842
449.394043	1358.485962	17865.113281	6398.764648	30.534880
449.751770	1349.383789	17630.734375	6715.062012	32.955978
450.109467	1372.139038	17623.908203	6416.968750	31.041725
450.467163	1342.557251	17350.845703	6325.947754	31.130066
450.824768	1349.383789	17241.621094	6221.273926	30.655785
451.182343	1331.179688	16959.457031	6189.416504	31.086195
451.539886	1363.036987	15960.502930	6005.099609	31.800468
451.897369	1435.853638	16338.239258	6171.212402	31.775845
452.254822	1426.751587	16158.473633	5914.078613	30.460304
452.612274	1272.016113	16925.324219	6139.354980	31.094633
452.969635	1363.036987	16583.996094	6237.202637	32.022724
453.326965	1378.965576	16467.943359	6100.671387	31.292419
453.684326	1403.996338	16185.779297	6000.548340	31.096058
454.041534	1394.894287	15980.982422	5909.527344	30.951635
454.398773	1390.343262	15503.123047	5841.261719	31.538214
454.755951	1433.578125	15129.937500	5725.210449	31.334110
455.113098	1408.547363	14636.149414	5543.168457	31.257526
455.470215	1408.547363	15032.090820	5634.189453	31.017204
455.827240	1374.414551	14959.273438	5554.546387	30.770519
456.184265	1492.741699	14759.028320	5647.842773	31.320753
456.541260	1347.108276	14781.783203	5568.199219	31.419374
456.898193	1385.792114	14381.291016	5579.577148	32.271057
457.255096	1374.414551	14727.170898	5522.688965	31.066803
457.611969	1360.761475	14611.119141	5509.035645	31.306887
457.968781	1374.414551	14888.732422	5524.964355	30.712240
458.325531	1376.690063	14991.130859	5488.556152	30.202242
458.682312	1401.720825	15830.797852	5795.751465	30.452612
459.039001	1360.761475	16304.106445	5934.558105	30.607584
459.395630	1429.027100	17216.589844	6175.763672	30.066303
459.752289	1385.792114	18661.546875	6512.540527	29.675976
460.108856	1376.690063	19712.835938	6849.317383	29.846115
460.465363	1422.200562	20363.634766	7033.634766	29.625181
460.821899	1385.792114	20441.003906	7038.186035	29.663246
461.178345	1458.608887	20004.103516	7063.216797	30.220861
461.534760	1372.139038	19492.111328	6935.787598	30.704508
461.891144	1342.557251	19321.447266	6633.143066	29.426655
462.247467	1351.659302	18092.666016	6350.978516	29.862719
462.603760	1438.129150	17890.144531	6175.763672	28.796682
462.960052	1317.526489	16822.925781	5895.874512	29.527445
463.316254	1347.108276	16392.851563	5920.905273	30.399275
463.672424	1433.578125	16263.147461	5770.720703	29.246584
464.028564	1363.036987	15503.123047	5536.342285	29.514002
464.384644	1340.281738	15450.786133	5622.812012	30.349945
464.740723	1335.730713	15575.939453	5820.782227	31.495687
465.096741	1383.516602	15377.969727	5597.781250	30.113821
465.452698	1390.343262	15266.468750	5634.189453	30.583799
465.808655	1451.782227	15694.266602	5502.209473	28.439051
466.164520	1344.832764	15352.938477	5588.679199	30.295650
466.520355	1381.241089	16413.332031	5645.566895	28.368147
466.876190	1381.241089	16240.391602	5788.924805	29.663094
467.231964	1433.578125	16210.810547	5670.597656	28.672619
467.587677	1392.618774	16948.078125	5843.537598	28.613228
467.943390	1397.169800	16993.589844	5907.251953	28.917419
468.299011	1415.373901	16274.524414	5600.056641	28.162327
468.654633	1429.027100	16406.505859	5613.709961	27.939835
469.010223	1442.680176	16317.759766	5615.985352	28.055681
469.365723	1381.241089	16035.594727	5604.607910	28.819878
469.721191	1388.067749	16003.738281	5552.270996	28.491358
470.076660	1360.761475	15425.755859	5299.687988	28.005177
470.432068	1394.894287	15521.327148	5326.994141	27.835052
470.787445	1340.281738	15530.429688	5313.341309	27.998718
471.142792	1338.006226	15398.449219	5306.514648	28.224632
471.498016	1322.077637	15960.502930	5276.932617	27.016941
471.853271	1383.516602	15516.776367	5329.269531	27.918209
472.208496	1388.067749	15737.501953	5163.156738	26.308275
472.563660	1403.996338	15773.910156	5386.157715	27.711796
472.918762	1399.445313	15971.880859	5338.371582	27.029980
473.273865	1442.680176	16761.486328	5499.933594	26.485441
473.628876	1365.312500	16970.833984	5520.413574	26.625839
473.983917	1358.485962	16861.609375	5600.056641	27.359461
474.338837	1369.863525	16786.517578	5443.045898	26.420664
474.693787	1397.169800	16718.251953	5481.729492	26.659733
475.048645	1378.965576	16882.087891	5333.820801	25.510057
475.403503	1406.271851	16866.160156	5581.852539	27.009125
475.758270	1433.578125	17202.937500	5577.301270	26.277054
476.113037	1410.822876	17107.365234	5527.240234	26.224997
476.467773	1458.608887	17257.548828	5367.953613	24.744349
476.822418	1419.924927	18399.861328	5757.067871	25.542753
477.177063	1369.863525	17712.654297	5645.566895	26.162624
477.531647	1399.445313	18363.453125	5716.108398	25.446011
477.886200	1422.200562	18802.628906	5845.812988	25.451689
478.240723	1281.118164	19405.640625	5939.109375	25.699938
478.595184	1265.189575	19564.927734	5873.119141	25.180304
478.949585	1399.445313	19812.958984	5861.741699	24.233812
479.303986	1390.343262	19956.318359	5902.701172	24.304449
479.658325	1374.414551	20327.226563	6059.711914	24.720856
480.012634	1401.720825	20017.755859	5936.833984	24.361328
480.366913	1344.832764	20780.056641	6061.987305	24.271158
480.721130	1306.148926	21312.527344	6066.538574	23.794359
481.075317	1419.924927	21685.712891	6323.672363	24.197172
481.429474	1394.894287	22743.830078	6651.347168	24.621616
481.783569	1319.802124	24054.531250	6569.428711	23.090782
482.137604	1417.649414	24598.378906	6822.011230	23.314028
482.491669	1394.894287	26844.318359	7561.555664	24.231045
482.845612	1383.516602	29565.841797	8046.241699	23.641502
483.199554	1376.690063	33013.253906	8660.631836	23.023808
483.553436	1413.098389	38042.156250	9846.178711	23.022923
483.907318	1358.485962	44593.382813	11475.451172	23.399998
484.261139	1392.618774	51827.261719	13107.000000	23.226852
484.614899	1365.312500	54972.031250	14010.381836	23.588591
484.968628	1406.271851	55147.246094	14108.228516	23.635517
485.322357	1312.975464	53194.851563	13482.460938	23.456141
485.675964	1376.690063	49699.648438	12463.027344	22.942175
486.029572	1388.067749	45867.671875	11480.002930	22.688906
486.383148	1365.312500	42611.402344	10572.069336	22.321526
486.736694	1347.108276	40135.636719	10082.833008	22.521414
487.090149	1390.343262	39992.277344	9893.964844	22.029003
487.443604	1426.751587	40686.312500	9944.026367	21.694777
487.796997	1417.649414	42342.890625	10119.241211	21.262163
488.150360	1390.343262	44051.808594	10519.732422	21.399614
488.503693	1376.690063	44802.730469	10531.110352	21.080486
488.856964	1363.036987	44299.839844	10337.691406	20.902008
489.210175	1358.485962	41992.460938	9787.014648	20.742563
489.563416	1495.017212	39990.003906	9158.971680	19.908968
489.916565	1408.547363	37557.472656	8772.132813	20.370136
490.269653	1479.088501	34886.007813	8150.915527	19.971394
490.622772	1392.618774	33912.085938	7850.546875	19.858654
490.975769	1390.343262	33445.605469	7811.862793	20.032654
491.328735	1353.934937	34876.906250	7893.781738	19.508553
491.681732	1401.720825	36742.835938	8346.610352	19.651022
492.034607	1390.343262	39123.027344	8781.234375	19.587505
492.387482	1353.934937	39880.777344	8813.091797	19.360933
492.740326	1463.159912	39093.449219	8662.907227	19.132851
493.093079	1390.343262	37502.859375	8346.610352	19.262760
493.445862	1431.302612	34394.496094	7638.923340	18.831974
493.798523	1447.231201	31925.556641	7104.175781	18.560549
494.151215	1385.792114	29688.720703	6537.571289	18.202284
494.503815	1390.343262	27695.363281	6228.100586	18.391005
494.856384	1308.424438	25934.111328	5788.924805	18.194418
495.208923	1353.934937	24691.675781	5738.863281	18.789001
495.561432	1419.924927	24020.398438	5408.913086	17.650021
495.913879	1394.894287	23467.445313	5308.790039	17.731960
496.266296	1331.179688	23574.394531	5320.167480	17.933504
496.618683	1372.139038	23531.160156	5222.320313	17.375231
496.970978	1378.965576	24354.898438	5408.913086	17.539864
497.323273	1403.996338	23949.855469	5326.994141	17.400082
497.675507	1410.822876	24571.074219	5235.973145	16.516014
498.027710	1456.333252	24434.542969	5176.810059	16.191326
498.379852	1449.506714	24052.253906	5160.881348	16.420015
498.731995	1417.649414	24100.041016	5274.657227	17.004416
499.084076	1356.210449	23795.121094	5156.330078	16.935402
499.436096	1356.210449	23783.744141	4924.227051	15.909091
499.788086	1444.955688	22536.757813	4785.420410	15.837740
500.140106	1419.924927	22493.523438	4698.950684	15.559877
500.491943	1349.383789	22240.939453	4603.378418	15.575646
500.843842	1447.231201	21731.224609	4528.286621	15.189590
501.195679	1388.067749	21125.935547	4471.398438	15.621397
501.547455	1356.210449	20841.494141	4530.562012	16.291021
501.899231	1358.485962	20814.189453	4423.612305	15.754385
502.250885	1356.210449	20511.544922	4412.234863	15.953908
502.602600	1442.680176	20466.033203	4309.836426	15.071771
502.954193	1435.853638	20406.871094	4225.642090	14.705529
503.305786	1429.027100	20199.798828	4248.397461	15.020002
503.657379	1388.067749	20648.076172	4266.601563	14.945652
504.008820	1335.730713	20495.615234	4148.274414	14.679336
504.360291	1351.659302	20843.771484	4273.428223	14.989495
504.711700	1363.036987	20805.085938	4145.999023	14.314139
505.063080	1401.720825	20839.218750	4196.060547	14.376026
505.414368	1401.720825	20855.148438	4134.621094	14.048426
505.765656	1410.822876	20666.279297	4105.039551	13.991965
506.116943	1333.455200	20677.658203	4023.120850	13.904245
506.468109	1349.383789	20495.615234	3998.090088	13.834087
506.819305	1342.557251	20388.666016	3995.814453	13.930705
507.170410	1415.373901	20689.035156	3897.967041	12.880755
507.521484	1358.485962	20436.453125	3847.905762	13.048665
507.872559	1390.343262	20356.808594	3791.017578	12.657469
508.223480	1367.588013	20550.228516	3904.793701	13.226571
508.574493	1401.720825	21098.628906	3875.211914	12.557764
508.925385	1438.129150	21073.597656	3870.660889	12.388457
509.276245	1385.792114	21444.507813	3904.793701	12.558140
509.627045	1426.751587	21874.582031	3909.344727	12.141109
509.977814	1403.996338	22272.796875	3838.803711	11.667212
510.328613	1410.822876	22391.125000	3831.977051	11.540131
510.679260	1374.414551	22090.755859	3957.130615	12.467047
511.029999	1397.169800	22409.328125	3827.426025	11.565953
511.380585	1299.322388	22341.062500	3920.722412	12.458095
511.731140	1469.986450	22828.025391	3861.558838	11.197527
512.081726	1392.618774	22909.943359	3973.059326	11.992385
512.432129	1403.996338	23399.179688	3907.069336	11.380095
512.782654	1319.802124	23417.384766	3934.375488	11.831943
513.133057	1415.373901	23483.375000	3900.242676	11.260053
513.483398	1378.965576	23355.945313	3820.599365	11.109961
513.833801	1353.934937	23622.181641	3813.772949	11.046392
514.183960	1408.547363	22989.585938	3640.833252	10.343737
514.534302	1419.924927	23037.373047	3627.180176	10.210527
514.884460	1367.588013	23014.617188	3686.343750	10.711658
515.234619	1403.996338	22814.371094	3695.445801	10.702519
515.584717	1378.965576	22684.666016	3508.853027	9.996796
515.934753	1326.628662	22691.494141	3497.475586	10.160827
516.284851	1392.618774	22946.351563	3561.189941	10.061234
516.634766	1399.445313	22853.054688	3479.271240	9.694527
516.984741	1458.608887	23208.037109	3495.199951	9.363883
517.334595	1365.312500	24020.398438	3577.118652	9.762957
517.684448	1372.139038	24773.595703	3624.904541	9.626604
518.034363	1422.200562	25417.566406	3681.792725	9.416786
518.384094	1378.965576	26621.318359	3750.058350	9.393311
518.733826	1385.792114	27590.689453	3822.875000	9.300105
519.083496	1326.628662	28701.144531	3891.140625	9.368246
519.433167	1363.036987	28894.562500	3854.732178	9.050335
519.782776	1328.904175	29163.074219	3802.395264	8.886528
520.132324	1294.771362	28425.806641	3738.680664	9.007799
520.481873	1351.659302	27827.343750	3613.527100	8.543189
520.831299	1342.557251	27263.015625	3499.750977	8.322360
521.180786	1312.975464	26751.023438	3392.801514	8.176044
521.530151	1426.751587	26327.775391	3433.760986	8.059947
521.879517	1403.996338	25483.556641	3331.362549	8.004159
522.228882	1356.210449	25761.171875	3354.117676	8.186480
522.578064	1397.169800	25155.882813	3319.984863	8.093095
522.927307	1372.139038	25399.363281	3217.586426	7.680652
523.276489	1319.802124	25228.699219	3222.137451	7.956600
523.625610	1317.526489	25836.263672	3144.769775	7.452436
523.974792	1376.690063	25927.283203	3167.524902	7.294466
524.323792	1331.179688	26603.113281	3158.422852	7.230326
524.672852	1399.445313	26967.197266	3263.096924	7.289071
525.021790	1358.485962	27599.791016	3242.617188	7.180021
525.370728	1392.618774	29126.666016	3360.944336	7.097145
525.719604	1360.761475	30755.939453	3445.138428	7.090880
526.068420	1363.036987	32626.417969	3515.679688	6.885508
526.417297	1367.588013	33233.980469	3627.180176	7.090832
526.765991	1431.302612	34374.015625	3611.251465	6.617393
527.114746	1392.618774	35379.796875	3604.425049	6.507766
527.463379	1410.822876	36647.261719	3702.272461	6.503068
527.812012	1417.649414	38394.863281	3722.751953	6.233846
528.160706	1476.812988	41778.562500	3893.416016	5.996273
528.509155	1444.955688	46067.917969	4114.141602	5.981643
528.857727	1401.720825	50678.125000	4500.979980	6.289540
529.206177	1440.404663	54742.203125	4623.858398	5.972507
529.554565	1415.373901	55365.695313	4623.858398	5.947109
529.902893	1353.934937	54284.824219	4662.541992	6.250805
530.251221	1360.761475	51758.996094	4412.234863	6.054723
530.599548	1363.036987	48297.929688	4025.396240	5.672452
530.947876	1347.108276	44943.812500	3854.732178	5.751866
531.296021	1449.506714	41007.160156	3686.343750	5.654625
531.644165	1406.271851	38410.792969	3426.934326	5.460583
531.992249	1438.129150	36474.324219	3315.433838	5.358187
532.340454	1324.353149	35443.511719	3276.750000	5.722289
532.688354	1419.924927	35152.246094	3190.280273	5.248247
533.036438	1365.312500	35969.156250	3087.881836	4.977971
533.384338	1360.761475	37821.429688	3228.964111	5.123885
533.732239	1392.618774	40349.535156	3235.790527	4.731308
534.080139	1388.067749	40649.902344	3294.954102	4.856844
534.427917	1388.067749	40731.824219	3208.484375	4.626952
534.775757	1388.067749	39243.632813	3151.596191	4.658571
535.123474	1381.241089	37316.265625	3085.606201	4.742908
535.471191	1372.139038	34797.265625	2985.483398	4.826741
535.818848	1335.730713	33953.046875	2905.840088	4.813729
536.166382	1399.445313	33120.207031	2773.859863	4.332855
536.513977	1463.159912	32471.681641	2805.717041	4.329639
536.861511	1365.312500	33193.023438	2798.890625	4.504182
537.208984	1399.445313	33161.164063	2914.942139	4.771457
537.556396	1358.485962	33147.511719	2676.012451	4.144596
537.903809	1403.996338	32387.488281	2714.696289	4.230317
538.251160	1435.853638	31188.289063	2619.124512	3.977056
538.598389	1397.169800	30419.162109	2594.093750	4.124197
538.945740	1363.036987	29188.105469	2573.614014	4.350670
539.292969	1401.720825	28601.021484	2512.175049	4.082657
539.640137	1417.649414	28682.939453	2455.286865	3.805709
539.987244	1363.036987	28553.234375	2414.327637	3.866433
540.334351	1419.924927	29197.207031	2532.654541	4.005898
540.681458	1415.373901	31151.878906	2443.909424	3.458831
541.028442	1344.832764	33218.050781	2546.307861	3.769544
541.375366	1401.720825	36224.015625	2610.022461	3.469908
541.722290	1403.996338	39728.316406	2739.727051	3.485334
542.069153	1376.690063	41507.773438	2873.982666	3.731005
542.416016	1367.588013	41865.031250	2871.707275	3.714109
542.762756	1406.271851	41346.214844	2826.196777	3.555150
543.109558	1360.761475	40128.808594	2771.584229	3.639138
543.456299	1381.241089	38199.167969	2767.033203	3.763906
543.802917	1397.169800	36845.234375	2644.155273	3.517781
544.149536	1438.129150	35211.410156	2546.307861	3.281229
544.496094	1367.588013	33224.878906	2471.215576	3.464286
544.842651	1410.822876	31661.595703	2361.990479	3.144275
545.189148	1358.485962	30020.945313	2416.603027	3.691648
545.535583	1383.516602	28767.134766	2243.663574	3.141101
545.882019	1413.098389	28218.734375	2250.489990	3.123939
546.228333	1413.098389	27772.730469	2168.571289	2.866022
546.574707	1297.046875	27501.945313	2232.285889	3.568947
546.920898	1349.383789	27267.566406	2173.122314	3.178226
547.267212	1317.526489	27472.363281	2082.101563	2.923265
547.613342	1369.863525	27547.455078	2141.265137	2.946801
547.959473	1419.924927	26930.789063	2072.999512	2.559986
548.305664	1369.863525	26616.767578	2084.376953	2.830103
548.651611	1438.129150	25319.720703	2013.835938	2.410672
548.997742	1417.649414	24341.246094	2059.346436	2.799286
549.343689	1344.832764	23535.710938	1943.294800	2.696883
549.689575	1388.067749	22391.125000	1970.601074	2.773565
550.035522	1422.200562	21988.357422	1959.223389	2.611197
550.381287	1408.547363	21244.261719	1945.570313	2.707354
550.727173	1388.067749	20868.800781	1845.447388	2.347857
551.072876	1424.476074	20518.371094	1909.161987	2.538434
551.418640	1317.526489	20122.429688	1927.366089	3.242982
551.764282	1419.924927	20252.134766	1861.375977	2.344128
552.109863	1378.965576	19963.144531	1765.804199	2.081548
552.455505	1424.476074	20204.349609	1849.998413	2.265842
552.801025	1372.139038	20190.695313	1863.651489	2.611850
553.146545	1351.659302	20693.585938	1856.824951	2.611765
553.491943	1378.965576	21098.628906	1938.743774	2.838680
553.837341	1424.476074	21094.078125	1938.743774	2.614530
554.182800	1385.792114	20372.738281	1875.029175	2.576702
554.528015	1353.934937	20359.083984	1831.794189	2.514367
554.873352	1310.699951	19949.490234	1811.314575	2.685875
555.218628	1397.169800	19751.521484	1822.692139	2.318373
555.563721	1426.751587	19423.845703	1756.702026	1.833354
555.908875	1324.353149	19203.119141	1756.702026	2.418226
556.254028	1449.506714	18677.474609	1781.732788	1.928411
556.599121	1397.169800	18693.404297	1836.345337	2.539140
556.944031	1433.578125	18352.076172	1877.304688	2.622730
557.289063	1385.792114	18336.146484	1829.518677	2.617801
557.633972	1449.506714	18131.349609	1706.640625	1.541400
557.978882	1397.169800	18329.320313	1756.702026	2.123370
558.323792	1415.373901	17858.287109	1774.906250	2.186549
558.668518	1490.466064	17623.908203	1747.599976	1.593794
559.013306	1363.036987	17883.318359	1747.599976	2.327823
559.358032	1401.720825	17680.796875	1733.946899	2.040817
559.702637	1485.915039	17633.009766	1738.497925	1.564262
560.047363	1394.894287	17760.439453	1824.967651	2.627920
560.391846	1401.720825	17514.683594	1736.222412	2.075978
560.736450	1390.343262	17398.632813	1779.457275	2.430703
561.080933	1374.414551	17992.542969	1686.160889	1.875941
561.425354	1333.455200	17648.939453	1788.559326	2.789400
561.769775	1378.965576	17856.011719	1663.405762	1.726281
562.114136	1385.792114	17812.777344	1674.783325	1.759247
562.458496	1340.281738	18099.492188	1674.783325	1.995927
562.802673	1356.210449	18101.767578	1713.467163	2.133442
563.146912	1390.343262	17835.531250	1790.834839	2.435312
563.491150	1353.934937	17721.755859	1683.885376	2.015848
563.835266	1365.312500	17692.173828	1777.181763	2.522648
564.179443	1413.098389	17612.531250	1715.742676	1.868240
564.523438	1399.445313	17514.683594	1663.405762	1.637956
564.867493	1376.690063	17607.980469	1677.058838	1.850554
565.211426	1472.261963	17837.806641	1658.854614	1.140155
565.555359	1381.241089	18085.839844	1661.130127	1.675521
565.899231	1401.720825	18331.595703	1692.987427	1.720430
566.243042	1397.169800	19016.527344	1749.875488	2.001808
566.586914	1376.690063	19526.244141	1818.141113	2.432297
566.930603	1342.557251	20008.654297	1765.804199	2.267463
567.274292	1381.241089	20095.125000	1758.977539	2.018482
567.617981	1388.067749	20017.755859	1722.569214	1.795529
567.961609	1360.761475	19528.519531	1708.916138	1.916333
568.305237	1365.312500	19164.435547	1743.048950	2.122220
568.648682	1447.231201	19052.935547	1656.579102	1.189091
568.992188	1376.690063	18811.730469	1672.507813	1.696685
569.335632	1367.588013	18493.158203	1636.099487	1.567898
569.679016	1451.782227	18613.759766	1722.569214	1.577831
570.022461	1465.435425	18388.484375	1595.140137	0.766438
570.365662	1363.036987	18556.873047	1724.844727	2.104287
570.708984	1438.129150	18586.453125	1688.436401	1.459660
571.052185	1440.404663	18377.105469	1677.058838	1.397286
571.395386	1399.445313	18670.648438	1731.671387	1.923584
571.738525	1381.241089	19196.292969	1711.191650	1.852089
572.081604	1372.139038	19469.355469	1672.507813	1.659751
572.424683	1390.343262	19683.255859	1622.446289	1.268814
572.767578	1333.455200	20095.125000	1781.732788	2.389327
573.110596	1338.006226	20035.960938	1743.048950	2.166241
573.453552	1342.557251	20047.337891	1686.160889	1.836983
573.796387	1312.975464	20020.031250	1763.528564	2.408466
574.139282	1399.445313	19558.101563	1665.681274	1.466166
574.481995	1435.853638	19471.630859	1645.201538	1.160737
574.824768	1390.343262	19371.507813	1729.395752	1.885598
575.167480	1392.618774	19469.355469	1633.823975	1.334340
575.510132	1388.067749	19037.007813	1672.507813	1.611655
575.852722	1417.649414	18982.394531	1656.579102	1.360280
576.195251	1369.863525	18968.742188	1663.405762	1.667960
576.537842	1424.476074	18736.638672	1690.711914	1.537854
576.880188	1349.383789	18836.761719	1654.303589	1.743656
577.222717	1433.578125	18185.962891	1656.579102	1.331160
577.565063	1397.169800	17851.460938	1611.068726	1.299958
577.907410	1351.659302	17760.439453	1579.211426	1.386771
578.249756	1413.098389	17052.751953	1576.935913	1.047578
578.591919	1312.975464	16661.363281	1576.935913	1.719793
578.934204	1426.751587	16231.290039	1636.099487	1.414079
579.276306	1378.965576	16128.891602	1629.272949	1.697008
579.618469	1376.690063	16092.483398	1640.650513	1.793722
579.960571	1374.414551	15594.144531	1633.823975	1.824292
580.302551	1312.975464	15366.591797	1551.905151	1.700130
580.644531	1408.547363	15209.581055	1663.405762	1.846662
580.986511	1310.699951	15079.875977	1629.272949	2.313668
581.328369	1388.067749	14790.884766	1592.864502	1.528013
581.670227	1392.618774	14699.864258	1576.935913	1.385089
582.012024	1347.108276	14581.537109	1483.639526	1.031637
582.353821	1331.179688	14774.957031	1597.415649	1.980366
582.695496	1383.516602	14754.476563	1613.344238	1.718857
583.037231	1394.894287	14472.312500	1615.619751	1.687837
583.378845	1406.271851	14779.507813	1520.047852	0.850774
583.720398	1390.343262	14613.394531	1540.527588	1.135777
584.062012	1376.690063	14561.057617	1583.762451	1.570590
584.403442	1431.302612	14545.128906	1576.935913	1.110533
584.744934	1385.792114	14499.618164	1743.048950	2.724276
585.086365	1381.241089	14429.077148	1622.446289	1.848622
585.427734	1338.006226	14308.474609	1642.926025	2.350877
585.768982	1376.690063	14024.035156	1640.650513	2.087082
586.110291	1356.210449	14363.086914	1597.415649	1.854444
586.451599	1435.853638	14035.412109	1606.517700	1.354524
586.792725	1335.730713	13921.636719	1583.762451	1.970710
587.133850	1381.241089	14174.218750	1510.945801	1.013874
587.474915	1479.088501	14137.810547	1529.150024	0.395471
587.815979	1376.690063	14090.024414	1554.180664	1.396098
588.157043	1417.649414	14105.953125	1554.180664	1.076040
588.497925	1440.404663	14046.790039	1561.007324	0.956679
588.838867	1401.720825	14456.383789	1538.252075	1.045843
589.179749	1417.649414	14379.015625	1588.313477	1.316714
589.520569	1431.302612	14404.046875	1617.895264	1.438344
589.861450	1408.547363	14827.293945	1531.425537	0.915720
590.202087	1424.476074	14916.039063	1583.762451	1.180637
590.542847	1415.373901	14733.997070	1574.660400	1.195968
590.883484	1431.302612	14806.813477	1581.486938	1.122831
591.224121	1388.067749	14479.138672	1611.068726	1.703459
591.564636	1374.414551	14690.762695	1545.078613	1.281613
591.905151	1419.924927	14510.996094	1649.752563	1.755606
592.245667	1394.894287	14422.250977	1545.078613	1.152838
592.585999	1413.098389	14399.496094	1533.701050	0.928685
592.926453	1417.649414	14385.842773	1592.864502	1.351114
593.266724	1385.792114	14199.250000	1510.945801	0.976736
593.607056	1351.659302	14324.403320	1551.905151	1.543589
593.947388	1322.077637	14192.422852	1545.078613	1.732673
594.287476	1388.067749	14328.954102	1513.221313	0.967117
594.627686	1369.863525	14319.852539	1608.793213	1.845018
594.967773	1403.996338	14649.802734	1652.028076	1.872530
595.307861	1460.884399	15075.325195	1611.068726	1.103125
595.647888	1349.383789	14840.946289	1565.558350	1.602294
595.987854	1376.690063	15088.978516	1592.864502	1.576502
596.327820	1442.680176	15084.427734	1561.007324	0.867390
596.667725	1344.832764	15441.684570	1538.252075	1.372074
597.007568	1408.547363	15953.676758	1658.854614	1.720901
597.347351	1360.761475	16636.332031	1702.089600	2.234471
597.687073	1488.190552	17148.324219	1702.089600	1.365883
598.026794	1360.761475	17066.406250	1679.334351	2.028397
598.366455	1394.894287	16588.546875	1647.477051	1.662423
598.706116	1310.699951	16342.790039	1592.864502	1.877081
599.045654	1385.792114	15985.533203	1642.926025	1.761222
599.385193	1456.333252	15227.785156	1613.344238	1.140119
599.724731	1388.067749	14843.222656	1551.905151	1.217655
600.064087	1394.894287	14536.027344	1547.354126	1.160173
600.403564	1376.690063	14090.024414	1620.170776	1.915160
600.742920	1372.139038	13928.462891	1597.415649	1.794129
601.082153	1392.618774	13819.238281	1522.323364	1.043764
601.421387	1392.618774	13466.532227	1611.068726	1.809272
601.760620	1442.680176	13389.164063	1517.772339	0.628571
602.099854	1401.720825	13744.145508	1633.823975	1.880531
602.438843	1372.139038	13687.257813	1570.109375	1.607539
602.778015	1312.975464	13755.523438	1535.976563	1.792246
603.117065	1388.067749	14119.606445	1631.548462	1.912422
603.456055	1338.006226	14490.516602	1622.446289	2.162629
603.794983	1326.628662	14881.906250	1579.211426	1.863354
604.133850	1315.250977	15257.367188	1661.130127	2.480823
604.472778	1410.822876	15678.337891	1579.211426	1.180223
604.811584	1403.996338	16065.176758	1640.650513	1.614155
605.150330	1394.894287	16615.853516	1654.303589	1.704290
605.489075	1358.485962	16909.394531	1647.477051	1.858355
605.827698	1369.863525	17100.539063	1622.446289	1.605670
606.166382	1335.730713	16659.087891	1606.517700	1.767152
606.504883	1394.894287	16481.597656	1652.028076	1.704374
606.843445	1297.046875	15851.278320	1535.976563	1.641651
607.181946	1367.588013	15277.846680	1670.232300	2.175691
607.520386	1385.792114	15120.835938	1601.966675	1.573891
607.858826	1383.516602	14372.189453	1538.252075	1.191311
608.197083	1319.802124	14322.127930	1561.007324	1.855093
608.535461	1419.924927	14035.412109	1508.670288	0.703464
608.873718	1385.792114	14124.157227	1549.629639	1.286174
609.211914	1429.027100	14301.648438	1570.109375	1.095987
609.550171	1372.139038	14652.078125	1565.558350	1.456477
609.888245	1363.036987	14759.028320	1554.180664	1.426872
610.226318	1381.241089	15209.581055	1565.558350	1.332895
610.564392	1385.792114	15184.550781	1633.823975	1.797494
610.902344	1372.139038	15289.224609	1615.619751	1.749509
611.240295	1401.720825	15232.335938	1681.609863	2.023692
611.578247	1472.261963	15027.539063	1604.242188	0.973645
611.916138	1410.822876	14695.313477	1588.313477	1.336074
612.253845	1353.934937	14278.892578	1626.997314	2.112675
612.591675	1383.516602	13819.238281	1563.282837	1.445563
612.929382	1333.455200	13566.655273	1599.691162	2.176339
613.267090	1319.802124	13127.479492	1513.221313	1.638080
613.604736	1333.455200	13097.897461	1604.242188	2.301741
613.942261	1372.139038	12940.886719	1545.078613	1.494886
614.279785	1399.445313	12754.293945	1570.109375	1.503006
614.617310	1360.761475	12620.038086	1531.425537	1.515764
614.954712	1376.690063	12610.936523	1520.047852	1.276078
615.292175	1419.924927	12469.853516	1506.394775	0.782538
615.629517	1326.628662	12005.647461	1490.466064	1.534199
615.966797	1303.873413	12503.986328	1572.384888	2.397400
616.304138	1365.312500	12187.689453	1615.619751	2.312868
616.641296	1381.241089	12219.546875	1531.425537	1.385682
616.978516	1369.863525	11971.514648	1526.874512	1.481005
617.315552	1372.139038	12117.148438	1531.425537	1.482423
617.652771	1417.649414	11880.494141	1438.129150	0.195738
617.989685	1474.537476	12283.261719	1499.568237	0.231579
618.326721	1447.231201	12292.363281	1542.803101	0.881242
618.663696	1390.343262	12076.188477	1510.945801	1.128620
619.000549	1413.098389	12051.158203	1488.190552	0.705882
619.337463	1378.965576	12203.618164	1526.874512	1.366408
619.674194	1376.690063	11837.258789	1590.588989	2.044812
620.010986	1374.414551	11960.137695	1540.527588	1.569218
620.347778	1429.027100	12001.096680	1631.548462	1.915627
620.684387	1367.588013	11969.239258	1501.843750	1.266366
621.020996	1342.557251	11830.432617	1508.670288	1.583858
621.357605	1426.751587	11846.361328	1545.078613	1.135619
621.694214	1397.169800	11834.983398	1556.456177	1.526051
622.030579	1449.506714	11680.248047	1526.874512	0.756229
622.367065	1385.792114	11725.758789	1508.670288	1.188381
622.703430	1454.057739	11568.748047	1513.221313	0.584927
623.039795	1431.302612	11716.656250	1506.394775	0.730088
623.376160	1474.537476	11457.247070	1611.068726	1.367677
623.712402	1374.414551	11400.359375	1526.874512	1.520654
624.048645	1451.782227	11461.797852	1629.272949	1.773131
624.384766	1408.547363	11461.797852	1608.793213	1.991852
624.720886	1390.343262	11525.512695	1451.782227	0.606196
625.057007	1394.894287	11486.829102	1538.252075	1.420518
625.392944	1397.169800	11580.125000	1495.017212	0.960894
625.729004	1388.067749	11680.248047	1563.282837	1.702410
626.064941	1451.782227	11800.850586	1558.731689	1.033421
626.400818	1356.210449	11757.616211	1561.007324	1.968935
626.736633	1372.139038	12203.618164	1586.037964	1.974790
627.072449	1401.720825	12497.160156	1538.252075	1.230517
627.408264	1353.934937	12481.231445	1540.527588	1.676891
627.743896	1426.751587	12670.099609	1570.109375	1.275045
628.079590	1388.067749	12617.762695	1495.017212	0.952381
628.415161	1363.036987	12574.528320	1533.701050	1.522224
628.750793	1401.720825	12242.301758	1538.252075	1.259446
629.086365	1401.720825	12328.771484	1563.282837	1.478551
629.421753	1349.383789	12087.566406	1520.047852	1.589320
629.757263	1406.271851	12060.259766	1538.252075	1.238787
630.092651	1438.129150	11489.104492	1567.833862	1.290469
630.427917	1358.485962	11618.809570	1474.537476	1.131071
630.763184	1438.129150	11318.440430	1508.670288	0.713957
631.098511	1392.618774	11268.378906	1583.762451	1.935483
631.433716	1344.832764	11111.368164	1492.741699	1.514446
631.768799	1394.894287	10990.765625	1483.639526	0.924827
632.103943	1378.965576	10808.723633	1510.945801	1.399614
632.438965	1433.578125	11074.959961	1522.323364	0.920462
632.773987	1376.690063	10824.652344	1465.435425	0.939307
633.109070	1324.353149	10569.793945	1533.701050	2.264337
633.443848	1406.271851	10606.202148	1531.425537	1.360376
633.778870	1417.649414	10551.589844	1438.129150	0.224216
634.113708	1460.884399	10626.682617	1529.150024	0.744787
634.448425	1401.720825	10776.866211	1565.558350	1.747573
634.783264	1392.618774	10617.580078	1542.803101	1.628021
635.117859	1365.312500	10551.589844	1515.496826	1.634877
635.452576	1374.414551	10836.030273	1565.558350	2.020203
635.787170	1388.067749	10424.161133	1561.007324	1.913875
636.121704	1394.894287	10674.467773	1469.986450	0.809220
636.456177	1419.924927	10374.099609	1495.017212	0.838629
636.790588	1424.476074	10173.853516	1485.915039	0.702210
637.125122	1472.261963	10196.608398	1547.354126	0.860720
637.459412	1408.547363	9937.199219	1513.221313	1.227321
637.793762	1392.618774	9698.269531	1447.231201	0.657533
638.128052	1358.485962	10005.464844	1501.843750	1.657895
638.462280	1315.250977	9853.004883	1474.537476	1.865672
638.796509	1369.863525	9623.177734	1540.527588	2.067825
639.130615	1454.057739	9598.146484	1422.200562	-0.391169
639.464722	1356.210449	9566.289063	1540.527588	2.245011
639.798767	1358.485962	9582.217773	1465.435425	1.300498
640.132751	1369.863525	9313.707031	1458.608887	1.117159
640.466736	1367.588013	9420.656250	1551.905151	2.288781
640.800598	1381.241089	9170.348633	1508.670288	1.635992
641.134521	1381.241089	9172.624023	1592.864502	2.716121
641.468262	1394.894287	9261.370117	1529.150024	1.706682
641.802063	1365.312500	9036.092773	1515.496826	1.957875
642.135803	1324.353149	9111.185547	1499.568237	2.250146
642.469421	1422.200562	9111.185547	1583.762451	2.101212
642.803101	1335.730713	8992.858398	1586.037964	3.268944
643.136658	1365.312500	8881.357422	1463.159912	1.301847
643.470215	1319.802124	8915.490234	1501.843750	2.396644
643.803711	1331.179688	8785.786133	1440.404663	1.465201
644.137085	1351.659302	8922.317383	1565.558350	2.825369
644.470581	1374.414551	8785.786133	1506.394775	1.780780
644.803833	1397.169800	8744.826172	1517.772339	1.641374
645.137207	1369.863525	9031.541992	1408.547363	0.504900
645.470459	1310.699951	8701.591797	1429.027100	1.600986
645.803589	1467.710938	8653.805664	1415.373901	-0.728310
646.136780	1301.597900	8678.835938	1474.537476	2.344232
646.469849	1410.822876	8785.786133	1570.109375	2.159828
646.802979	1431.302612	8703.867188	1517.772339	1.188985
647.135986	1417.649414	8742.550781	1570.109375	2.081393
647.468994	1394.894287	8840.398438	1510.945801	1.558679
647.801941	1406.271851	8976.929688	1454.057739	0.631199
648.134766	1376.690063	8669.734375	1492.741699	1.591265
648.467651	1397.169800	8951.898438	1506.394775	1.445783
648.800354	1422.200562	8826.745117	1483.639526	0.829747
649.133179	1351.659302	8744.826172	1410.822876	0.800247
649.465881	1363.036987	8813.091797	1547.354126	2.474037
649.798462	1440.404663	8826.745117	1492.741699	0.708565
650.131104	1415.373901	8772.132813	1520.047852	1.422827
650.463623	1369.863525	8867.704102	1529.150024	2.124432
650.796143	1460.884399	8792.612305	1440.404663	-0.279330
651.128662	1397.169800	8826.745117	1451.782227	0.735068
651.461060	1454.057739	8751.653320	1460.884399	0.093547
651.793396	1381.241089	8885.909180	1481.364014	1.334142
652.125732	1390.343262	8749.377930	1495.017212	1.422387
652.458008	1338.006226	8674.285156	1517.772339	2.450372
652.790222	1403.996338	8765.305664	1522.323364	1.607418
653.122437	1415.373901	8751.653320	1456.333252	0.558312
653.454529	1474.537476	8888.184570	1508.670288	0.460405
653.786621	1397.169800	8885.909180	1558.731689	2.157398
654.118713	1394.894287	8783.510742	1499.568237	1.416692
654.450623	1365.312500	8710.693359	1419.924927	0.743493
654.782654	1385.792114	8537.753906	1472.261963	1.209037
655.114502	1394.894287	8453.559570	1474.537476	1.128304
655.446350	1408.547363	8439.906250	1495.017212	1.229774
655.778198	1454.057739	8562.785156	1465.435425	0.160052
656.109863	1403.996338	8417.151367	1513.221313	1.557430
656.441650	1388.067749	8328.406250	1522.323364	1.934425
656.773254	1388.067749	8521.825195	1485.915039	1.371609
657.104919	1353.934937	8273.793945	1444.955688	1.315356
657.436462	1390.343262	8162.292969	1479.088501	1.310483
657.767944	1374.414551	8301.099609	1485.915039	1.609724
658.099548	1390.343262	8544.581055	1467.710938	1.081424
658.430908	1376.690063	8749.377930	1435.853638	0.802470
658.762268	1367.588013	8640.152344	1456.333252	1.220274
659.093628	1328.904175	9172.624023	1520.047852	2.436901
659.424927	1344.832764	9177.175781	1556.456177	2.701917
659.756226	1333.455200	9468.442383	1501.843750	2.069930
660.087341	1378.965576	9575.391602	1485.915039	1.304831
660.418518	1335.730713	9739.229492	1515.496826	2.139182
660.749573	1413.098389	9773.362305	1501.843750	1.061514
661.080627	1383.516602	9761.984375	1563.282837	2.145574
661.411621	1401.720825	9479.819336	1492.741699	1.126761
661.742554	1383.516602	9315.982422	1561.007324	2.237523
662.073547	1374.414551	9054.296875	1520.047852	1.896296
662.404297	1426.751587	8986.031250	1561.007324	1.776039
662.735229	1454.057739	8722.071289	1454.057739	0.000000
663.065979	1399.445313	8672.009766	1542.803101	1.971214
663.396667	1360.761475	8608.294922	1510.945801	2.072213
663.727417	1397.169800	8307.926758	1545.078613	2.140269
664.057922	1353.934937	8094.027344	1504.119263	2.228224
664.388611	1381.241089	8123.609375	1449.506714	1.012487
664.719116	1360.761475	7939.291992	1551.905151	2.905568
665.049622	1312.975464	7925.639160	1501.843750	2.856160
665.380005	1344.832764	7891.506348	1433.578125	1.355579
665.710388	1338.006226	7955.220703	1429.027100	1.375517
666.040771	1381.241089	7641.198730	1488.190552	1.708470
666.371033	1438.129150	7764.077148	1526.874512	1.402878
666.701294	1394.894287	7757.250488	1442.680176	0.751072
667.031555	1415.373901	7750.423828	1442.680176	0.431035
667.361633	1369.863525	7775.454590	1440.404663	1.101243
667.691772	1372.139038	7786.832031	1476.812988	1.631784
668.021790	1374.414551	7798.209961	1485.915039	1.735742
668.351807	1324.353149	7743.597168	1469.986450	2.268699
668.681763	1410.822876	7707.188965	1495.017212	1.337189
669.011719	1435.853638	7725.393066	1481.364014	0.723588
669.341614	1285.669312	7618.443848	1449.506714	2.587135
669.671387	1378.965576	7839.168945	1506.394775	1.972526
670.001221	1406.271851	7714.015625	1545.078613	2.200577
670.330933	1365.312500	7839.168945	1485.915039	1.862916
670.660583	1390.343262	7780.005859	1515.496826	1.958688
670.990173	1331.179688	7627.545898	1472.261963	2.240694
671.319763	1374.414551	7836.893555	1490.466064	1.795774
671.649292	1403.996338	7493.290039	1495.017212	1.494769
671.978821	1292.495850	7545.626953	1463.159912	2.729258
672.308289	1372.139038	7527.422852	1476.812988	1.700554
672.637695	1363.036987	7393.166992	1451.782227	1.471697
672.966980	1328.904175	7409.095703	1406.271851	1.272455
673.296326	1419.924927	7363.585449	1472.261963	0.880552
673.625610	1385.792114	7397.718262	1479.088501	1.551855
673.954773	1403.996338	7293.043945	1444.955688	0.695517
674.283936	1376.690063	7331.728027	1465.435425	1.490257
674.613037	1424.476074	7543.351563	1456.333252	0.520638
674.942078	1353.934937	7349.932129	1360.761475	0.113852
675.271118	1324.353149	7176.992676	1513.221313	3.227060
675.600098	1433.578125	7265.737793	1463.159912	0.507218
675.928955	1410.822876	7254.360352	1442.680176	0.545171
676.257813	1488.190552	7038.186035	1454.057739	-0.615006
676.586670	1394.894287	7227.054199	1424.476074	0.507218
676.915466	1463.159912	7122.379883	1483.639526	0.361881
677.244141	1433.578125	7140.584473	1501.843750	1.196172
677.572876	1403.996338	7045.012207	1433.578125	0.524405
677.901489	1388.067749	7222.502930	1403.996338	0.273010
678.230042	1319.802124	7017.706055	1490.466064	2.995206
678.558594	1315.250977	7131.482422	1522.323364	3.560250
678.887085	1403.996338	7133.757813	1454.057739	0.873708
679.215515	1403.996338	7395.442383	1465.435425	1.025447
679.543945	1419.924927	7211.125488	1394.894287	-0.432218
679.872253	1433.578125	7436.401855	1349.383789	-1.402579
680.200562	1417.649414	7347.656738	1399.445313	-0.306983
680.528809	1408.547363	7620.719238	1415.373901	0.109890
680.856995	1351.659302	7748.148438	1504.119263	2.383494
681.185120	1417.649414	7739.046387	1508.670288	1.439885
681.513306	1278.842651	7766.352539	1433.578125	2.385129
681.841309	1324.353149	7723.117676	1417.649414	1.458036
682.169373	1413.098389	7793.658691	1467.710938	0.855921
682.497314	1449.506714	7918.812500	1472.261963	0.351742
682.825134	1374.414551	7707.188965	1438.129150	1.006109
683.153076	1374.414551	7673.056152	1476.812988	1.625723
683.480896	1399.445313	7399.993652	1524.598877	2.085702
683.808655	1385.792114	7527.422852	1447.231201	1.000371
684.136414	1394.894287	7227.054199	1472.261963	1.326570
684.464050	1413.098389	7297.595215	1551.905151	2.358855
684.791626	1335.730713	7122.379883	1497.292725	2.791979
685.119263	1381.241089	7097.349609	1488.190552	1.871019
685.446838	1378.965576	7031.359375	1458.608887	1.409019
685.774292	1385.792114	6910.756836	1438.129150	0.947283
686.101685	1356.210449	6844.766602	1374.414551	0.331674
686.429077	1388.067749	6872.072754	1372.139038	-0.290458
686.756348	1406.271851	6874.348145	1426.751587	0.374533
687.083679	1399.445313	6799.256348	1426.751587	0.505689
687.410950	1426.751587	6728.714844	1479.088501	0.987123
687.738159	1331.179688	6653.623047	1417.649414	1.624625
688.065308	1444.955688	6778.776367	1415.373901	-0.554608
688.392395	1435.853638	6928.960938	1447.231201	0.207124
688.719421	1440.404663	6712.786133	1501.843750	1.165300
689.046448	1376.690063	6833.389160	1490.466064	2.085070
689.373413	1383.516602	7017.706055	1522.323364	2.463651
689.700317	1356.210449	6617.214355	1426.751587	1.340830
690.027100	1383.516602	6651.347168	1467.710938	1.598273
690.353943	1342.557251	6553.500000	1492.741699	2.882097
690.680725	1426.751587	6678.653320	1451.782227	0.476601
691.007446	1358.485962	6421.519531	1440.404663	1.617977
691.334106	1344.832764	6412.417480	1431.302612	1.706332
691.660645	1419.924927	6498.887207	1394.894287	-0.492830
691.987244	1401.720825	6112.048828	1392.618774	-0.193236
692.313721	1429.027100	6164.385742	1360.761475	-1.441615
692.640259	1394.894287	6259.957520	1479.088501	1.730588
692.966675	1360.761475	6121.150879	1363.036987	0.047801
693.293030	1372.139038	6112.048828	1431.302612	1.248200
693.619324	1426.751587	6027.854492	1408.547363	-0.395649
693.945618	1399.445313	6014.201660	1385.792114	-0.295860
694.271851	1410.822876	5961.864258	1456.333252	0.999999
694.598083	1449.506714	6046.058594	1456.333252	0.148514
694.924194	1390.343262	5930.007324	1376.690063	-0.300754
695.250244	1424.476074	5845.812988	1383.516602	-0.926405
695.576294	1408.547363	5945.936035	1385.792114	-0.501505
695.902283	1408.547363	6002.823730	1435.853638	0.594354
696.228210	1408.547363	5995.997070	1413.098389	0.099206
696.554138	1363.036987	5777.547363	1383.516602	0.463916
696.879944	1378.965576	6068.813965	1408.547363	0.630762
697.205750	1367.588013	6077.916016	1410.822876	0.917874
697.531433	1326.628662	6162.110352	1529.150024	4.188236
697.857178	1413.098389	6046.058594	1419.924927	0.147347
698.182739	1381.241089	6187.141113	1474.537476	1.941289
698.508423	1378.965576	6496.611816	1472.261963	1.823033
698.833984	1399.445313	6760.572266	1410.822876	0.212223
699.159485	1442.680176	7004.053223	1419.924927	-0.409166
699.484924	1338.006226	7138.308594	1522.323364	3.177716
699.810303	1442.680176	7420.473145	1419.924927	-0.380663
700.135681	1451.782227	7470.534668	1515.496826	1.058601
700.460999	1331.179688	7493.290039	1408.547363	1.255539
700.786255	1399.445313	7222.502930	1488.190552	1.524032
701.111450	1399.445313	7126.931152	1465.435425	1.152165
701.436646	1397.169800	6892.552734	1492.741699	1.739131
701.761719	1349.383789	6592.183594	1429.027100	1.519099
702.086792	1388.067749	6514.815918	1408.547363	0.399466
702.411865	1294.771362	6287.264160	1465.435425	3.418414
702.736816	1367.588013	6059.711914	1449.506714	1.745877
703.061646	1356.210449	5838.986328	1467.710938	2.487309
703.386536	1406.271851	5804.853516	1424.476074	0.413866
703.711365	1317.526489	5604.607910	1476.812988	3.715500
704.036194	1351.659302	5545.444336	1438.129150	2.061857
704.360901	1385.792114	5604.607910	1410.822876	0.593313
704.685547	1392.618774	5509.035645	1392.618774	0.000000
705.010132	1422.200562	5365.678223	1342.557251	-2.019621
705.334717	1374.414551	5443.045898	1360.761475	-0.335569
705.659302	1390.343262	5358.851563	1374.414551	-0.401378
705.983765	1401.720825	5094.891113	1449.506714	1.293899
706.308228	1344.832764	5377.055664	1449.506714	2.595937
706.632568	1397.169800	5226.871094	1401.720825	0.118835
706.956909	1372.139038	5217.769043	1440.404663	1.775148
707.281189	1424.476074	5365.678223	1440.404663	0.404156
707.605408	1406.271851	5097.166504	1429.027100	0.616524
707.929626	1331.179688	5201.840332	1435.853638	2.704292
708.253784	1372.139038	5290.585938	1474.537476	2.613240
708.577820	1444.955688	5122.197266	1458.608887	0.371289
708.901855	1360.761475	5165.432129	1410.822876	1.315788
709.225830	1413.098389	5240.524414	1424.476074	0.297267
709.549805	1381.241089	5301.963379	1426.751587	1.160768
709.873718	1406.271851	5315.616699	1378.965576	-0.698487
710.197510	1392.618774	5315.616699	1463.159912	1.798144
710.521362	1392.618774	5461.250000	1469.986450	1.901565
710.845093	1431.302612	5431.667969	1440.404663	0.227530
711.168701	1429.027100	5299.687988	1390.343262	-0.999412
711.492432	1401.720825	5374.780273	1485.915039	2.119128
711.816040	1435.853638	5515.862305	1465.435425	0.725042
712.139587	1363.036987	5524.964355	1378.965576	0.382721
712.463074	1394.894287	5631.914063	1392.618774	-0.053706
712.786499	1481.364014	5700.179688	1394.894287	-2.049621
713.109924	1397.169800	5584.127930	1429.027100	0.760870
713.433350	1390.343262	5529.515625	1388.067749	-0.054975
713.756592	1413.098389	5515.862305	1524.598877	2.717692
714.079834	1435.853638	5397.535156	1460.884399	0.631822
714.403015	1367.588013	5372.504395	1431.302612	1.590910
714.726196	1406.271851	5347.474121	1495.017212	2.251733
715.049255	1290.220337	5324.718750	1449.506714	3.948108
715.372375	1410.822876	5233.697754	1458.608887	1.250002
715.695435	1419.924927	5213.218262	1424.476074	0.119979
716.018311	1369.863525	5299.687988	1397.169800	0.694847
716.341248	1381.241089	5238.249023	1433.578125	1.356934
716.664063	1392.618774	5251.901855	1497.292725	2.712264
716.987000	1333.455200	5324.718750	1356.210449	0.570126
717.309692	1363.036987	5099.441895	1410.822876	1.278927
717.632385	1433.578125	5169.983398	1444.955688	0.304506
717.955078	1328.904175	5281.483887	1403.996338	1.899827
718.277649	1353.934937	5060.758301	1399.445313	1.227746
718.600220	1388.067749	4912.849609	1476.812988	2.517751
718.922791	1319.802124	4985.666016	1451.782227	3.600246
719.245300	1394.894287	4826.379395	1485.915039	2.652518
719.567688	1413.098389	4944.706543	1419.924927	0.193298
719.890015	1408.547363	4617.031738	1394.894287	-0.425530
720.212341	1417.649414	4737.634277	1383.516602	-1.028101
720.534607	1406.271851	4653.439941	1349.383789	-1.751929
720.856873	1410.822876	4535.112793	1449.506714	1.238164
721.179016	1385.792114	4403.132813	1438.129150	1.734542
721.501160	1383.516602	4382.652832	1429.027100	1.517454
721.823242	1365.312500	4705.776855	1451.782227	2.588554
722.145264	1342.557251	4432.714355	1408.547363	2.135494
722.467224	1429.027100	4475.949219	1472.261963	1.418968
722.789185	1312.975464	4403.132813	1333.455200	0.662741
723.111023	1365.312500	4271.152344	1419.924927	1.879403
723.432861	1353.934937	4303.009766	1392.618774	1.311728
723.754578	1374.414551	4357.622559	1383.516602	0.305110
724.076294	1338.006226	4339.417969	1392.618774	1.819562
724.397949	1367.588013	4359.897949	1397.169800	0.988594
724.719666	1399.445313	4277.979004	1388.067749	-0.395256
725.041260	1388.067749	4207.437988	1515.496826	4.519771
725.362732	1367.588013	4366.724609	1424.476074	1.896815
725.684265	1392.618774	4246.121582	1522.323364	4.545452
726.005676	1444.955688	4328.040527	1513.221313	2.367798
726.327087	1403.996338	4262.050293	1456.333252	1.831208
726.648438	1394.894287	4328.040527	1522.323364	4.344450
726.969666	1465.435425	4380.377441	1454.057739	-0.390323
727.290894	1415.373901	4316.663086	1440.404663	0.862746
727.612061	1408.547363	4305.285156	1469.986450	2.120975
727.933228	1349.383789	4471.398438	1463.159912	3.644317
728.254395	1378.965576	4544.214844	1429.027100	1.581598
728.575378	1451.782227	4626.133789	1442.680176	-0.286737
728.896301	1306.148926	4466.847168	1451.782227	4.607631
729.217285	1340.281738	4592.000977	1454.057739	3.498949
729.538147	1365.312500	4687.572754	1390.343262	0.753426
729.858948	1351.659302	4564.694824	1433.578125	2.549577
730.179810	1301.597900	4630.685059	1510.945801	6.288447
730.500549	1385.792114	4621.582520	1424.476074	1.195503
730.821228	1360.761475	4453.194336	1417.649414	1.839585
731.141846	1360.761475	4598.827637	1390.343262	0.913563
731.462402	1372.139038	4526.010742	1431.302612	1.875903
731.782898	1410.822876	4610.205078	1460.884399	1.564725
732.103455	1431.302612	4537.388672	1474.537476	1.391940
732.423889	1449.506714	4778.593750	1451.782227	0.068352
732.744263	1376.690063	4617.031738	1472.261963	2.949439
733.064636	1410.822876	4612.480469	1444.955688	1.066098
733.384888	1344.832764	4541.939453	1449.506714	3.274021
733.705200	1499.568237	4623.858398	1465.435425	-1.092498
734.025330	1340.281738	4774.042480	1403.996338	1.855534
734.345520	1367.588013	4664.817871	1365.312500	-0.069013
734.665527	1369.863525	4596.552246	1545.078613	5.430182
734.985596	1456.333252	4541.939453	1429.027100	-0.884953
735.305542	1356.210449	4412.234863	1476.812988	3.946387
735.625549	1403.996338	4503.255859	1467.710938	2.055801
735.945435	1447.231201	4227.917480	1510.945801	2.291327
736.265259	1356.210449	4371.275391	1442.680176	2.867923
736.585083	1344.832764	4139.172363	1431.302612	3.094465
736.904785	1413.098389	4150.549805	1403.996338	-0.332501
737.224426	1367.588013	4230.193359	1463.159912	3.338633
737.544128	1342.557251	4118.692871	1388.067749	1.639347
737.863708	1406.271851	4152.825684	1422.200562	0.579953
738.183289	1369.863525	4141.447754	1458.608887	3.201972
738.502808	1383.516602	4157.376465	1520.047852	4.922067
738.822205	1388.067749	4248.397461	1481.364014	3.261731
739.141541	1388.067749	4239.295410	1488.190552	3.511568
739.460938	1388.067749	4218.815430	1540.527588	5.385851
739.780212	1383.516602	4293.907715	1431.302612	1.641910
740.099426	1369.863525	4469.123047	1513.221313	4.625550
740.418640	1365.312500	4246.121582	1458.608887	3.238548
740.737793	1442.680176	4289.356934	1508.670288	2.318146
741.056885	1401.720825	4227.917480	1545.078613	5.072463
741.375977	1294.771362	4196.060547	1501.843750	7.137255
741.694946	1326.628662	4177.855957	1570.109375	8.539506
742.013855	1374.414551	4111.866211	1554.180664	6.566915
742.332703	1383.516602	4125.519043	1474.537476	3.319504
742.651550	1415.373901	4034.498291	1467.710938	1.998265
742.970398	1378.965576	4054.978027	1508.670288	4.846940
743.289124	1385.792114	4136.896973	1406.271851	0.744419
743.607788	1460.884399	3943.477539	1495.017212	1.374885
743.926453	1392.618774	4004.916504	1549.629639	6.010450
744.245056	1399.445313	3959.406250	1535.976563	5.333333
744.563599	1447.231201	3829.701416	1481.364014	1.432665
744.882141	1367.588013	3913.895752	1501.843750	5.272565
745.200500	1403.996338	3845.630127	1504.119263	4.100653
745.518860	1419.924927	3941.202148	1419.924927	0.000000
745.837219	1394.894287	3843.354736	1481.364014	3.531596
746.155518	1363.036987	3750.058350	1451.782227	3.717823
746.473755	1458.608887	3786.466553	1442.680176	-0.684265
746.791992	1358.485962	3863.834229	1490.466064	5.267935
747.110107	1399.445313	3820.599365	1449.506714	2.067667
747.428162	1363.036987	3770.538086	1535.976563	7.183365
747.746216	1328.904175	3763.711426	1479.088501	6.168223
748.064148	1317.526489	3718.200928	1469.986450	6.350714
748.382080	1406.271851	3822.875000	1476.812988	2.919020
748.700073	1440.404663	3825.150391	1510.945801	2.958015
749.017822	1358.485962	3761.435791	1506.394775	6.155302
749.335632	1403.996338	3761.435791	1444.955688	1.737451
749.653320	1349.383789	3872.936523	1474.537476	4.959424
749.971008	1376.690063	3909.344727	1490.466064	4.492361
750.288696	1510.945801	3847.905762	1547.354126	1.557935
750.606262	1422.200562	3845.630127	1522.323364	4.131451
750.923828	1363.036987	3697.721191	1542.803101	7.699805
751.241272	1388.067749	3850.181152	1472.261963	3.419591
751.558716	1469.986450	3786.466553	1504.119263	1.473478
751.876038	1460.884399	3775.089111	1570.109375	4.719763
752.193481	1399.445313	3756.884766	1604.242188	8.687259
752.510681	1363.036987	3731.854004	1622.446289	10.951007
752.827942	1351.659302	3725.027588	1595.140137	10.258873
753.145081	1388.067749	3779.640137	1531.425537	5.994290
753.462219	1388.067749	3702.272461	1601.966675	9.242870
753.779297	1338.006226	3802.395264	1597.415649	10.526318
754.096375	1392.618774	3759.160400	1626.997314	9.903842
754.413330	1392.618774	3634.006836	1611.068726	9.746190
754.730286	1353.934937	3706.823486	1608.793213	10.831718
755.047119	1372.139038	3636.282227	1520.047852	6.532662
755.363892	1367.588013	3759.160400	1620.170776	10.561369
755.680725	1406.271851	3636.282227	1520.047852	5.102039
755.997498	1363.036987	3661.312988	1611.068726	10.792079
756.314148	1363.036987	3734.129639	1574.660400	8.925142
756.630737	1419.924927	3599.874023	1647.477051	10.438414
756.947327	1376.690063	3588.496338	1590.588989	9.670781
757.263855	1365.312500	3740.956299	1695.262939	13.888885
757.580261	1356.210449	3568.016602	1640.650513	12.860081
757.896729	1401.720825	3672.690674	1586.037964	8.116231
758.213074	1367.588013	3608.976074	1636.099487	11.979695
758.529419	1338.006226	3597.598389	1699.814087	16.012087
758.845642	1415.373901	3704.547852	1692.987427	12.127236
759.161865	1335.730713	3690.894775	1636.099487	12.753624
759.478149	1356.210449	3720.476563	1722.569214	15.495666
759.794189	1440.404663	3845.630127	1706.640625	11.069064
760.110229	1353.934937	3740.956299	1754.426514	16.777880
760.426270	1431.302612	3756.884766	1715.742676	12.230920
760.742249	1447.231201	3822.875000	1763.528564	13.314175
761.058105	1394.894287	3765.986816	1747.599976	14.875239
761.374023	1410.822876	3743.231689	1797.661377	16.585365
761.689819	1488.190552	3759.160400	1642.926025	6.813630
762.005554	1408.547363	3786.466553	1836.345337	17.990433
762.321289	1456.333252	3877.487549	1754.426514	12.312031
762.636902	1433.578125	3888.864990	1768.079712	13.623727
762.952515	1397.169800	3763.711426	1845.447388	18.942308
763.268127	1360.761475	3886.589600	1740.773438	15.045044
763.583618	1388.067749	3929.824463	1827.243164	17.278419
763.899048	1401.720825	4186.958496	1986.529663	20.996729
764.214478	1481.364014	4505.531250	2111.683350	20.842741
764.529785	1413.098389	5042.554199	2036.591064	17.178682
764.845093	1369.863525	5192.738281	2182.224365	21.249998
765.160400	1326.628662	5144.952637	2159.469238	21.811680
765.475586	1376.690063	5049.380859	2150.367188	21.065674
765.790771	1381.241089	4910.573730	2173.122314	22.437138
766.105835	1394.894287	4799.073242	2141.265137	21.925135
766.420837	1319.802124	4539.664063	2050.244141	22.685509
766.735840	1392.618774	4380.377441	2016.111450	20.868240
767.050842	1381.241089	4339.417969	2041.142212	22.307697
767.365662	1440.404663	4064.080078	2038.866699	22.810064
767.680542	1331.179688	4141.447754	1927.366089	21.214575
767.995300	1399.445313	3811.497314	1881.855713	20.000000
768.309998	1417.649414	3834.252441	1968.325439	22.787193
768.624817	1431.302612	3836.528076	1938.743774	21.097446
768.939392	1358.485962	3743.231689	1979.703125	26.049620
769.254028	1360.761475	3709.098877	1920.539551	23.837208
769.568481	1406.271851	3722.751953	1947.845825	23.379177
769.882935	1347.108276	3636.282227	1997.907227	28.429424
770.197388	1408.547363	3659.037354	1900.059814	21.840242
770.511841	1381.241089	3542.985840	1890.957764	23.578949
770.826172	1344.832764	3602.149414	1927.366089	25.806452
771.140442	1369.863525	3572.567627	2002.458252	28.719006
771.454651	1349.383789	3476.995850	1852.273926	23.636364
771.768860	1372.139038	3451.965088	1918.264038	26.258204
772.082886	1394.894287	3388.250488	1881.855713	24.429222
772.397034	1374.414551	3388.250488	1925.090576	27.344631
772.711060	1347.108276	3454.240479	2020.662476	31.965445
773.025024	1426.751587	3304.056152	1900.059814	25.212118
773.338928	1433.578125	3267.647949	1941.019287	27.667494
773.652771	1390.343262	3329.086914	1913.713013	26.995304
773.966614	1378.965576	3319.984863	1918.264038	27.784292
774.280457	1326.628662	3374.597412	1925.090576	29.222219
774.594116	1388.067749	3376.872803	1902.335449	25.858126
774.907776	1440.404663	3315.433838	1950.121338	27.184465
775.221375	1406.271851	3288.127441	1879.580200	25.151152
775.534912	1399.445313	3181.177979	1890.957764	27.586206
775.848450	1410.822876	3379.148438	1897.784302	24.739882
776.161926	1356.210449	3279.025391	1863.651489	26.390530
776.475342	1353.934937	3190.280273	1897.784302	29.615854
776.788696	1353.934937	3201.657715	1952.396851	32.389160
777.101990	1376.690063	3137.943115	1966.049927	33.462532
777.415283	1390.343262	3181.177979	1875.029175	27.064804
777.728516	1431.302612	3222.137451	1852.273926	23.506987
778.041626	1374.414551	3242.617188	1872.753662	26.674789
778.354736	1335.730713	3133.392090	1934.192627	33.291138
778.667725	1344.832764	3144.769775	1884.131226	29.962074
778.980774	1353.934937	3190.280273	1909.161987	30.235437
779.293640	1460.884399	3144.769775	1879.580200	24.864864
779.606567	1433.578125	3124.290039	1877.304688	26.244953
779.919434	1347.108276	3137.943115	1900.059814	30.876747
780.232239	1449.506714	3065.126465	1879.580200	26.619722
780.544983	1335.730713	3099.259277	2009.284912	38.193550
780.857666	1429.027100	3147.045166	2011.560425	33.907288
781.170227	1367.588013	3092.432861	1895.508789	30.606855
781.482849	1438.129150	3081.055176	1936.468262	30.332413
781.795410	1419.924927	3160.698486	1909.161987	28.104578
782.107910	1333.455200	3015.064941	1981.978638	38.565632
782.420288	1294.771362	3099.259277	1852.273926	30.895334
782.732666	1376.690063	3201.657715	1913.713013	29.426437
783.044983	1469.986450	3056.024414	1952.396851	30.416069
783.357300	1367.588013	3024.167236	1870.478149	30.357143
783.669495	1408.547363	3003.687500	1849.998413	27.674749
783.981689	1394.894287	2974.105713	1768.079712	23.631124
784.293762	1358.485962	2958.177002	1786.283813	26.742529
784.605835	1358.485962	2894.462402	1879.580200	33.925926
784.917908	1351.659302	2969.554688	1913.713013	34.739807
785.229858	1394.894287	2844.401123	1909.161987	35.478806
785.541748	1458.608887	2930.870850	1811.314575	23.956720
785.853577	1376.690063	2826.196777	1881.855713	34.850868
786.165405	1485.915039	2878.533936	1834.069824	25.000004
786.477173	1385.792114	2917.217773	1913.713013	34.472511
786.788879	1408.547363	2835.298828	1834.069824	29.824568
787.100525	1438.129150	2842.125488	1886.406738	31.928686
787.412109	1378.965576	2798.890625	1870.478149	34.615387
787.723694	1369.863525	2846.676514	1886.406738	34.976887
788.035156	1451.782227	2883.084961	1890.957764	30.683622
788.346558	1451.782227	2903.564453	1906.886475	31.347969
788.658081	1383.516602	2844.401123	1809.039063	29.127728
788.969360	1408.547363	2971.830078	1886.406738	30.567688
789.280640	1392.618774	3001.411865	1918.264038	32.673267
789.591919	1424.476074	3185.729004	1954.672363	30.103359
789.903076	1413.098389	3026.442627	1920.539551	31.452751
790.214172	1353.934937	3137.943115	1879.580200	29.464285
790.525269	1363.036987	3056.024414	1922.815063	33.064514
790.836365	1292.495850	2983.207764	1865.927002	33.916550
791.147339	1410.822876	2942.248291	1950.121338	35.215458
791.458191	1392.618774	2949.074951	1906.886475	33.040936
791.769104	1415.373901	2962.728027	1911.437500	32.058826
792.079895	1426.751587	2864.880615	1809.039063	26.582279
792.390686	1392.618774	2846.676514	1793.110352	27.543032
792.701416	1365.312500	2782.961914	1809.039063	31.300161
793.012085	1424.476074	2728.349365	1795.385864	28.446766
793.322693	1408.547363	2742.002686	1824.967651	31.228664
793.633240	1383.516602	2701.043213	1763.528564	28.842831
793.943787	1390.343262	2669.185791	1888.682251	38.967972
794.254272	1415.373901	2653.257324	1884.131226	37.867645
794.564636	1451.782227	2712.420898	1809.039063	28.339352
794.875000	1440.404663	2753.380127	1822.692139	29.116117
795.185303	1392.618774	2694.216553	1829.518677	33.566429
795.495544	1358.485962	2723.798340	1811.314575	33.166668
795.805786	1444.955688	2703.318604	1745.324463	23.869804
796.115906	1353.934937	2735.176025	1838.620850	35.090611
796.426025	1374.414551	2653.257324	1849.998413	37.188610
796.736023	1363.036987	2762.482178	1802.212524	31.382118
797.045959	1394.894287	2828.472412	1840.896362	31.111111
797.355896	1390.343262	2896.738037	1843.171875	30.060421
797.665833	1401.720825	2835.298828	1938.743774	37.460323
797.975708	1417.649414	2901.289063	1829.518677	27.760735
798.285461	1463.159912	2807.992676	1840.896362	28.087986
798.595154	1406.271851	2762.482178	1859.100464	33.389263
798.904846	1378.965576	2778.410889	1795.385864	29.756096
799.214478	1508.670288	2739.727051	1834.069824	26.432537
799.524109	1331.179688	2755.655762	1849.998413	36.421722
799.833557	1413.098389	2812.543701	1743.048950	23.577238
800.143005	1374.414551	2807.992676	1831.794189	31.904758
800.452393	1399.445313	2632.777588	1886.406738	39.483395
800.761780	1349.383789	2610.022461	1786.283813	34.657040
801.071106	1385.792114	2782.961914	1768.079712	27.361570
801.380371	1322.077637	2653.257324	1843.171875	39.145298
801.689575	1383.516602	2628.226563	1758.977539	30.164532
801.998718	1451.782227	2612.297852	1879.580200	36.862751
802.307800	1406.271851	2635.052979	1829.518677	34.444443
802.616882	1381.241089	2655.532715	1724.844727	26.964287
802.925903	1349.383789	2632.777588	1831.794189	37.588650
803.234863	1422.200562	2632.777588	1729.395752	25.375931
803.543701	1401.720825	2434.807373	1790.834839	37.665192
803.852539	1383.516602	2655.532715	1745.324463	28.443653
804.161316	1417.649414	2685.114502	1731.671387	24.775591
804.470032	1374.414551	2594.093750	1763.528564	31.902981
804.778809	1403.996338	2632.777588	1724.844727	26.111107
805.087341	1308.424438	2594.093750	1727.120239	32.566368
805.395935	1367.588013	2523.552490	1797.661377	37.204723
805.704468	1392.618774	2503.072998	1708.916138	28.483603
806.012939	1426.751587	2589.542725	1809.039063	32.876709
806.321350	1417.649414	2603.195801	1797.661377	32.053741
806.629761	1399.445313	2539.481201	1779.457275	33.333332
806.938049	1303.873413	2639.604248	1813.590088	38.160133
807.246277	1442.680176	2696.492188	1770.355225	26.134304
807.554504	1342.557251	2669.185791	1768.079712	32.075478
807.862671	1401.720825	2698.767578	1756.702026	27.368420
808.170715	1360.761475	2605.471436	1784.008301	34.003651
808.478821	1406.271851	2625.950928	1774.906250	30.223885
808.786804	1397.169800	2539.481201	1809.039063	36.055779
809.094727	1392.618774	2564.511963	1804.488037	35.145630
809.402649	1369.863525	2514.450439	1699.814087	28.827044
809.710510	1429.027100	2530.379150	1754.426514	29.545450
810.018311	1333.455200	2464.388916	1795.385864	40.845070
810.326050	1442.680176	2550.858887	1677.058838	21.149897
810.633667	1390.343262	2584.991699	1809.039063	35.047615
810.941345	1388.067749	2516.726074	1747.599976	31.854834
811.248901	1374.414551	2373.368164	1686.160889	31.207289
811.556396	1476.812988	2407.500977	1656.579102	19.315401
811.863892	1385.792114	2396.123291	1770.355225	38.063076
812.171326	1378.965576	2466.664551	1686.160889	28.242678
812.478699	1383.516602	2291.449463	1799.937012	45.864670
812.786011	1385.792114	2380.194824	1724.844727	34.096107
813.093262	1397.169800	2475.766602	1672.507813	25.527428
813.400391	1312.975464	2400.674561	1665.681274	32.426781
813.707642	1324.353149	2382.470215	1724.844727	37.849457
814.014709	1349.383789	2393.847900	1738.497925	37.254906
814.321716	1422.200562	2448.460449	1777.181763	34.589794
814.628723	1406.271851	2361.990479	1677.058838	28.333338
814.935669	1310.699951	2375.643799	1752.151001	41.452988
815.242554	1442.680176	2434.807373	1631.548462	19.036701
815.549438	1392.618774	2396.123291	1674.783325	28.117916
815.856201	1413.098389	2357.439453	1704.365112	30.843382
816.162964	1433.578125	2373.368164	1611.068726	18.886198
816.469604	1415.373901	2407.500977	1692.987427	27.981649
816.776184	1385.792114	2427.980713	1758.977539	35.807858
817.082825	1369.863525	2425.705078	1665.681274	28.017248
817.389343	1397.169800	2416.603027	1677.058838	27.455359
817.695801	1383.516602	2384.745850	1706.640625	32.272732
818.002197	1376.690063	2364.266113	1697.538574	32.488487
818.308533	1374.414551	2368.817139	1720.293701	34.782608
818.614868	1351.659302	2380.194824	1699.814087	33.849564
818.921143	1392.618774	2450.735840	1743.048950	33.118279
819.227356	1358.485962	2364.266113	1736.222412	37.556561
819.533447	1369.863525	2425.705078	1704.365112	31.681040
819.839539	1394.894287	2443.909424	1681.609863	27.331882
820.145569	1340.281738	2564.511963	1731.671387	31.970264
820.451538	1422.200562	2580.440674	1811.314575	33.595280
820.757568	1394.894287	2742.002686	1809.039063	30.743240
821.063416	1467.710938	2817.094727	1890.957764	31.365934
821.369263	1406.271851	3019.616211	1895.508789	30.324396
821.675049	1426.751587	3069.677490	1911.437500	29.501387
821.980713	1347.108276	3128.841064	2000.182739	36.653896
822.286438	1383.516602	3285.852051	2120.785400	38.755981
822.592102	1340.281738	3816.048340	2232.285889	36.029411
822.897583	1367.588013	4931.053711	2742.002686	38.569603
823.203125	1415.373901	7145.135254	3442.863037	35.385227
823.508545	1474.537476	9388.798828	4250.672852	35.077629
823.813965	1367.588013	10603.926758	4737.634277	36.486820
824.119263	1454.057739	10378.650391	4644.337891	35.747066
824.424622	1488.190552	9006.511719	4125.519043	35.078690
824.729858	1383.516602	7552.453613	3640.833252	36.591663
825.035095	1344.832764	6589.908203	3242.617188	36.182217
825.340149	1374.414551	5939.109375	2987.758789	35.343967
825.645264	1369.863525	5311.065430	2803.441650	36.374134
825.950256	1394.894287	4956.084473	2696.492188	36.549519
826.255310	1347.108276	4553.316895	2473.491211	35.131306
826.560242	1347.108276	4321.213867	2423.429688	36.189754
826.865112	1340.281738	4091.386475	2307.378174	35.153023
827.169922	1415.373901	3884.313965	2257.316650	34.101387
827.474670	1374.414551	3841.079102	2195.877686	33.302589
827.779419	1419.924927	4191.509277	2323.306641	32.594414
828.084045	1358.485962	4776.318359	2516.726074	33.888145
828.388672	1406.271851	5267.830566	2694.216553	33.352974
828.693176	1447.231201	5438.494629	2844.401123	35.005707
828.997681	1360.761475	5129.023926	2575.889648	32.246380
829.302124	1319.802124	4573.796875	2437.082764	34.335663
829.606567	1403.996338	4111.866211	2282.347412	32.436974
829.910828	1401.720825	3706.823486	2173.122314	33.464954
830.215149	1369.863525	3513.404053	2057.070801	32.059448
830.519348	1385.792114	3260.821289	2032.040039	34.466019
830.823547	1353.934937	3099.259277	1931.917114	33.116032
831.127686	1372.139038	2926.319824	1934.192627	36.163979
831.431763	1394.894287	2885.360352	1929.641602	35.877857
831.735779	1365.312500	2726.073975	1822.692139	33.612038
832.039734	1358.485962	2641.879639	1820.416626	35.992905
832.343628	1378.965576	2525.828125	1784.008301	35.317459
832.647461	1278.842651	2562.236328	1790.834839	39.893620
832.951233	1374.414551	2507.624023	1704.365112	29.116467
833.255127	1383.516602	2484.868652	1749.875488	33.264465
833.558777	1415.373901	2482.593262	1788.559326	34.968014
833.862366	1406.271851	2516.726074	1749.875488	30.942621
834.165955	1342.557251	2732.900391	1793.110352	32.405891
834.469482	1365.312500	3160.698486	1954.672363	32.826359
834.773010	1369.863525	3417.832275	2063.897461	33.888893
835.076416	1403.996338	3768.262451	2198.153076	33.589989
835.379822	1399.445313	3879.762939	2193.602051	32.018349
835.683105	1376.690063	3804.670898	2189.051025	33.458294
835.986389	1388.067749	3442.863037	2138.989502	36.544842
836.289612	1374.414551	3192.555664	1961.498901	32.290363
836.592773	1394.894287	3005.962891	1900.059814	31.355928
836.895874	1363.036987	2908.115479	1859.100464	32.106037
837.198914	1390.343262	2853.503174	1890.957764	34.214615
837.501892	1338.006226	2703.318604	1868.202637	38.833340
837.804871	1442.680176	2562.236328	1786.283813	30.691059
838.107666	1353.934937	2528.103516	1738.497925	32.751942
838.410583	1363.036987	2468.940186	1677.058838	28.395058
838.713379	1347.108276	2382.470215	1679.334351	32.087917
839.016052	1397.169800	2259.592041	1633.823975	27.440639
839.318787	1378.965576	2234.561523	1631.548462	29.521280
839.621338	1381.241089	2230.010498	1597.415649	25.469173
839.923889	1419.924927	2316.480225	1667.956787	27.664982
840.226440	1385.792114	2191.326416	1604.242188	27.118656
840.528931	1369.863525	2245.938965	1654.303589	32.467529
840.831299	1356.210449	2352.888428	1708.916138	35.388130
841.133606	1369.863525	2336.959961	1670.232300	31.058823
841.435913	1413.098389	2407.500977	1713.467163	30.205952
841.738220	1376.690063	2409.776611	1722.569214	33.480171
842.040405	1333.455200	2323.306641	1658.854614	32.873562
842.342529	1422.200562	2255.041016	1606.517700	22.131145
842.644592	1369.863525	2284.622803	1567.833862	21.641796
842.946594	1397.169800	2209.530762	1674.783325	34.173668
843.248596	1406.271851	2084.376953	1624.721802	32.214764
843.550598	1374.414551	2118.509766	1636.099487	35.168205
843.852478	1392.618774	2020.662476	1608.793213	34.420284
844.154236	1408.547363	2057.070801	1547.354126	21.403507
844.455994	1324.353149	2027.489014	1538.252075	30.420710
844.757690	1378.965576	1959.223389	1542.803101	28.235298
845.059326	1383.516602	2045.693237	1542.803101	24.054987
845.360962	1356.210449	1952.396851	1463.159912	17.938931
845.662476	1367.588013	1881.855713	1467.710938	19.469028
845.963989	1465.435425	1950.121338	1451.782227	-2.816917
846.265381	1365.312500	1904.610962	1508.670288	26.582273
846.566772	1397.169800	2032.040039	1456.333252	9.318983
846.868042	1369.863525	1909.161987	1561.007324	35.443047
847.169373	1385.792114	1991.080688	1504.119263	19.548882
847.470581	1369.863525	1918.264038	1538.252075	30.705397
847.771729	1413.098389	1881.855713	1506.394775	19.902918
848.072815	1388.067749	1827.243164	1545.078613	35.751286
848.373901	1353.934937	1863.651489	1515.496826	31.696419
848.674866	1374.414551	1811.314575	1497.292725	28.125010
848.975891	1367.588013	1972.876587	1476.812988	18.045107
849.276794	1483.639526	1897.784302	1535.976563	12.637377
849.577637	1376.690063	1906.886475	1524.598877	27.896984
849.878357	1367.588013	1870.478149	1579.211426	42.081440
850.179077	1351.659302	1802.212524	1469.986450	26.262634
850.479736	1381.241089	1884.131226	1483.639526	20.361990
850.780396	1397.169800	1820.416626	1433.578125	8.602150
851.080994	1369.863525	1897.784302	1488.190552	22.413784
851.381470	1390.343262	1856.824951	1551.905151	34.634132
851.681946	1356.210449	1886.406738	1465.435425	20.600857
851.982361	1312.975464	1802.212524	1469.986450	32.093029
852.282715	1394.894287	1824.967651	1501.843750	24.867725
852.583008	1381.241089	1845.447388	1529.150024	31.862759
852.883240	1374.414551	1872.753662	1490.466064	23.287659
853.183411	1390.343262	1758.977539	1510.945801	32.716042
853.483521	1335.730713	1797.661377	1469.986450	29.064045
853.783630	1351.659302	1847.722900	1540.527588	38.073402
854.083679	1383.516602	1738.497925	1483.639526	28.205124
854.383667	1401.720825	1811.314575	1440.404663	9.444441
854.683533	1442.680176	1843.171875	1467.710938	6.250008
854.983337	1422.200562	1793.110352	1456.333252	9.202424
855.283203	1367.588013	1795.385864	1463.159912	22.340435
855.582886	1347.108276	1781.732788	1456.333252	25.130882
855.882629	1360.761475	1738.497925	1451.782227	24.096365
856.182312	1344.832764	1834.069824	1415.373901	14.418601
856.481873	1324.353149	1774.906250	1499.568237	38.888885
856.781372	1324.353149	1863.651489	1429.027100	19.409285
857.080872	1376.690063	1824.967651	1483.639526	23.857864
857.380310	1328.904175	1811.314575	1419.924927	18.867908
857.679688	1397.169800	1824.967651	1469.986450	17.021275
857.979004	1349.383789	1729.395752	1506.394775	41.317379
858.278259	1397.169800	1743.048950	1495.017212	28.289480
858.577454	1426.751587	1749.875488	1549.629639	38.028152
858.876648	1385.792114	1777.181763	1460.884399	19.186068
859.175720	1403.996338	1779.457275	1495.017212	24.242435
859.474792	1426.751587	1809.039063	1481.364014	14.285696
859.773743	1413.098389	1849.998413	1476.812988	14.583336
860.072693	1363.036987	1774.906250	1524.598877	39.226498
860.371521	1413.098389	1733.946899	1551.905151	43.262398
860.670349	1378.965576	1777.181763	1440.404663	15.428576
860.969116	1429.027100	1768.079712	1474.537476	13.422807
861.267883	1413.098389	1752.151001	1513.221313	29.530203
861.566589	1403.996338	1875.029175	1458.608887	11.594213
861.865112	1390.343262	1761.253052	1454.057739	17.177891
862.163635	1363.036987	1781.732788	1476.812988	27.173906
862.462158	1363.036987	1815.865601	1481.364014	26.130642
862.760620	1367.588013	1815.865601	1424.476074	12.690365
863.059021	1415.373901	1758.977539	1531.425537	33.774857
863.357361	1401.720825	1743.048950	1435.853638	10.000000
863.655640	1356.210449	1797.661377	1356.210449	0.000000
863.953857	1399.445313	1695.262939	1465.435425	22.307701
864.251953	1390.343262	1763.528564	1438.129150	12.804869
864.550110	1372.139038	1718.018188	1463.159912	26.315802
864.848206	1408.547363	1752.151001	1499.568237	26.490078
865.146179	1410.822876	1743.048950	1488.190552	23.287659
865.444092	1338.006226	1820.416626	1460.884399	25.471708
865.741943	1408.547363	1799.937012	1465.435425	14.534892
866.039795	1342.557251	1754.426514	1433.578125	22.099459
866.337646	1374.414551	1758.977539	1483.639526	28.402363
866.635376	1308.424438	1790.834839	1392.618774	17.452845
866.933044	1385.792114	1804.488037	1388.067749	0.543505
867.230652	1328.904175	1809.039063	1538.252075	43.601894
867.528198	1392.618774	1793.110352	1447.231201	13.636349
867.825745	1310.699951	1713.467163	1447.231201	33.898304
868.123230	1390.343262	1843.171875	1460.884399	15.577888
868.420593	1449.506714	1799.937012	1426.751587	-6.493482
868.717896	1399.445313	1768.079712	1481.364014	22.222208
869.015198	1381.241089	1724.844727	1456.333252	21.854298
869.312439	1469.986450	1765.804199	1376.690063	-31.538467
869.609619	1392.618774	1729.395752	1463.159912	20.945950
869.906738	1408.547363	1790.834839	1394.894287	-3.571416
870.203796	1367.588013	1754.426514	1465.435425	25.294125
870.500854	1403.996338	1815.865601	1426.751587	5.524872
870.797791	1356.210449	1699.814087	1492.741699	39.735100
871.094666	1385.792114	1695.262939	1467.710938	26.470613
871.391602	1431.302612	1797.661377	1451.782227	5.590044
871.688293	1435.853638	1642.926025	1458.608887	10.989031
871.985107	1340.281738	1784.008301	1458.608887	26.666681
872.281738	1287.944824	1765.804199	1460.884399	36.190475
872.578369	1381.241089	1772.630737	1438.129150	14.534892
872.874939	1392.618774	1790.834839	1545.078613	38.285709
873.171509	1374.414551	1820.416626	1467.710938	20.918375
873.467957	1367.588013	1699.814087	1499.568237	39.726028
873.764343	1349.383789	1761.253052	1447.231201	23.756910
874.060669	1447.231201	1763.528564	1429.027100	-5.755376
874.356995	1438.129150	1768.079712	1353.934937	-25.517221
874.653198	1413.098389	1831.794189	1408.547363	-1.086953
874.949463	1363.036987	1818.141113	1485.915039	26.999987
875.245544	1385.792114	1754.426514	1426.751587	11.111136
875.541626	1388.067749	1736.222412	1442.680176	15.686255
875.837646	1331.179688	1799.937012	1449.506714	25.242704
876.133606	1401.720825	1774.906250	1465.435425	17.073175
876.429565	1399.445313	1731.671387	1488.190552	26.712303
876.725403	1328.904175	1772.630737	1476.812988	33.333324
877.021179	1363.036987	1790.834839	1454.057739	21.276581
877.316956	1338.006226	1708.916138	1449.506714	30.061340
877.612610	1424.476074	1679.334351	1467.710938	16.964277
877.908203	1415.373901	1670.232300	1403.996338	-4.464269
878.203857	1358.485962	1702.089600	1456.333252	28.476791
878.499390	1356.210449	1813.590088	1469.986450	24.875616
878.794800	1419.924927	1786.283813	1429.027100	2.484496
879.090271	1340.281738	1799.937012	1456.333252	25.247511
879.385559	1365.312500	1824.967651	1435.853638	15.346535
879.680847	1422.200562	1795.385864	1483.639526	16.463394
879.976196	1319.802124	1852.273926	1499.568237	33.760681
880.271301	1403.996338	1890.957764	1488.190552	17.289709
880.566467	1363.036987	1961.498901	1542.803101	30.038021
880.861572	1451.782227	1981.978638	1554.180664	19.313303
881.156555	1324.353149	2066.172852	1570.109375	33.128834
881.451477	1408.547363	2264.143311	1636.099487	26.595745
881.746460	1438.129150	2528.103516	1772.630737	30.688940
882.041321	1444.955688	3135.667725	2068.448486	36.877529
882.336121	1358.485962	4016.294189	2216.357178	32.277393
882.630798	1449.506714	4728.532227	2530.379150	32.963223
882.925537	1403.996338	5001.594727	2484.868652	30.044273
883.220215	1426.751587	4869.614746	2466.664551	30.204887
883.514771	1308.424438	4548.766113	2462.113525	35.603931
883.809326	1401.720825	4211.988770	2225.459229	29.311737
884.103760	1351.659302	3920.722412	2218.632813	33.746681
884.398132	1403.996338	3688.619141	2082.101563	29.681276
884.692505	1378.965576	3547.536865	1970.601074	27.282270
884.986816	1333.455200	3335.913574	1915.988525	29.090908
885.281067	1363.036987	3076.504150	1922.815063	32.669319
885.575256	1374.414551	2978.656738	1822.692139	27.943262
885.869385	1406.271851	2742.002686	1809.039063	30.153322
886.163452	1488.190552	2662.359375	1779.457275	24.806206
886.457458	1415.373901	2459.837891	1661.130127	23.529411
886.751465	1410.822876	2343.786377	1642.926025	24.878052
887.045410	1360.761475	2243.663574	1611.068726	28.350510
887.339233	1358.485962	2116.234375	1497.292725	18.318317
887.632996	1390.343262	2070.723877	1611.068726	32.441467
887.926758	1367.588013	1966.049927	1526.874512	26.615980
888.220398	1397.169800	1922.815063	1542.803101	27.705624
888.514099	1390.343262	1931.917114	1499.568237	20.168066
888.807678	1328.904175	1811.314575	1472.261963	29.716976
889.101196	1385.792114	1929.641602	1429.027100	7.949807
889.394653	1374.414551	1859.100464	1492.741699	24.413160
889.688049	1435.853638	1893.233276	1465.435425	6.467666
889.981384	1338.006226	1822.692139	1476.812988	28.638498
890.274719	1385.792114	1733.946899	1542.803101	45.098042
890.567932	1378.965576	1843.171875	1460.884399	17.647072
>>>>>End Processed Spectral Data<<<<<
