Jaz Data File
++++++++++++++++++++++++++++++++++++
Date: Wed Feb 07 06:38:43 2024
User: jaz
Dark Spectrum Present: Yes
Reference Spectrum Present: Yes
Processed Spectrum Present: Yes
Spectrometers: JAZA3692
Integration Time (usec): 43100 (JAZA3692)
Spectra Averaged: 1 (JAZA3692)
Boxcar Smoothing: 0 (JAZA3692)
Correct for Electrical Dark: No (JAZA3692)
Strobe/Lamp Enabled: Yes (JAZA3692)
Correct for Detector Non-linearity: No (JAZA3692)
Correct for Stray Light: No (JAZA3692)
Number of Pixels in Processed Spectrum: 2048
>>>>>Begin Processed Spectral Data<<<<<
W	D	R	S	P
190.244385	0.000000	0.000000	0.000000	0.000000
190.627136	0.000000	0.000000	0.000000	0.000000
191.009842	1165.066650	1165.066650	1178.719727	0.000000
191.392532	1169.617676	1219.679199	1196.923950	54.545433
191.775177	1231.056763	1215.128052	1246.985352	-99.999237
192.157791	1199.199463	1258.363037	1215.128052	26.922966
192.540390	1246.985352	1210.577026	1226.505737	56.249813
192.922943	1276.567139	1251.536499	1235.607788	163.636856
193.305481	1253.812012	1281.118164	1262.914063	33.333332
193.687958	1221.954712	1217.403687	1221.954712	-0.000000
194.070419	1253.812012	1246.985352	1206.026001	699.991089
194.452866	1301.597900	1285.669312	1190.097412	700.002319
194.835251	1262.914063	1274.291626	1210.577026	-460.002136
195.217621	1196.923950	1231.056763	1233.332275	106.666641
195.599960	1256.087524	1228.781250	1217.403687	141.666473
195.982254	1272.016113	1228.781250	1190.097412	189.473709
196.364517	1299.322388	1274.291626	1242.434326	227.272598
196.746750	1242.434326	1201.474976	1276.567139	-83.333382
197.128952	1246.985352	1224.230225	1251.536499	-20.000536
197.511139	1312.975464	1221.954712	1269.740601	47.500008
197.893280	1256.087524	1290.220337	1281.118164	73.333069
198.275391	1160.515625	1274.291626	1174.168701	11.999961
198.657471	1224.230225	1224.230225	1267.465088	0.000000
199.039520	1199.199463	1201.474976	1215.128052	700.000000
199.421539	1285.669312	1265.189575	1287.944824	-11.111045
199.803513	1358.485962	1306.148926	1201.474976	299.999756
200.185471	1301.597900	1338.006226	1301.597900	0.000000
200.567383	1165.066650	1278.842651	1221.954712	50.000053
200.949265	1240.158813	1335.730713	1274.291626	35.714275
201.331131	1212.852539	1299.322388	1206.026001	-7.894703
201.712967	1294.771362	1319.802124	1217.403687	-309.090363
202.094742	1283.393677	1278.842651	1249.260864	750.002686
202.476517	1253.812012	1324.353149	1228.781250	-35.483921
202.858231	1358.485962	1237.883301	1206.026001	126.415085
203.239944	1267.465088	1253.812012	1206.026001	450.001801
203.621582	1301.597900	1262.914063	1219.679199	211.764664
204.003235	1260.638550	1233.332275	1294.771362	-124.999886
204.384827	1201.474976	1242.434326	1256.087524	133.333527
204.766388	1249.260864	1315.250977	1190.097412	-89.655029
205.147934	1253.812012	1315.250977	1210.577026	-70.370628
205.529449	1253.812012	1269.740601	1215.128052	-242.858673
205.910904	1237.883301	1219.679199	1153.689087	462.501343
206.292343	1242.434326	1217.403687	1281.118164	-154.545944
206.673767	1215.128052	1233.332275	1237.883301	124.999832
207.055115	1235.607788	1208.301514	1249.260864	-49.999775
207.436462	1180.995239	1215.128052	1324.353149	420.000275
207.817780	1297.046875	1262.914063	1283.393677	40.000214
208.199051	1160.515625	1283.393677	1240.158813	64.814819
208.580307	1235.607788	1274.291626	1237.883301	5.882334
208.961517	1233.332275	1272.016113	1237.883301	11.764668
209.342712	1171.893188	1242.434326	1137.760376	-48.387104
209.723846	1165.066650	1308.424438	1226.505737	42.857166
210.104965	1196.923950	1240.158813	1190.097412	-15.789429
210.486069	1231.056763	1256.087524	1224.230225	-27.272594
210.867111	1253.812012	1344.832764	1242.434326	-12.500100
211.248123	1201.474976	1315.250977	1206.026001	3.999987
211.629120	1210.577026	1244.709839	1251.536499	120.000290
212.010071	1237.883301	1322.077637	1171.893188	-78.378326
212.390991	1297.046875	1249.260864	1267.465088	61.904701
212.771881	1242.434326	1301.597900	1251.536499	15.384758
213.152756	1299.322388	1235.607788	1153.689087	228.571320
213.533569	1292.495850	1294.771362	1287.944824	-200.000000
213.914368	1203.750488	1369.863525	1196.923950	-4.109574
214.295135	1158.240112	1274.291626	1253.812012	82.352997
214.675858	1256.087524	1237.883301	1235.607788	112.499916
215.056549	1233.332275	1310.699951	1338.006226	135.294159
215.437225	1237.883301	1258.363037	1171.893188	-322.221497
215.817841	1217.403687	1251.536499	1192.372925	-73.333427
216.198441	1190.097412	1235.607788	1210.577026	44.999878
216.579025	1196.923950	1258.363037	1253.812012	92.592621
216.959549	1199.199463	1338.006226	1233.332275	24.590166
217.340057	1242.434326	1219.679199	1167.342163	330.001068
217.720535	1224.230225	1169.617676	1201.474976	41.666702
218.100967	1199.199463	1290.220337	1192.372925	-7.499970
218.481369	1183.270874	1258.363037	1187.821899	6.060586
218.861740	1251.536499	1210.577026	1208.301514	105.555519
219.242065	1244.709839	1276.567139	1217.403687	-85.713959
219.622391	1253.812012	1237.883301	1206.026001	299.999237
220.002670	1237.883301	1281.118164	1215.128052	-52.631714
220.382919	1228.781250	1240.158813	1187.821899	-360.001068
220.763123	1249.260864	1290.220337	1322.077637	177.777618
221.143295	1281.118164	1292.495850	1249.260864	-279.998077
221.523453	1242.434326	1290.220337	1219.679199	-47.618805
221.903549	1226.505737	1290.220337	1237.883301	17.857075
222.283630	1242.434326	1338.006226	1287.944824	47.619122
222.663696	1246.985352	1224.230225	1249.260864	-10.000000
223.043701	1219.679199	1281.118164	1274.291626	88.888908
223.423676	1192.372925	1272.016113	1171.893188	-25.714359
223.803635	1219.679199	1215.128052	1253.812012	-749.982544
224.183548	1194.648438	1331.179688	1265.189575	51.666660
224.563431	1201.474976	1281.118164	1208.301514	8.571403
224.943283	1246.985352	1244.709839	1210.577026	1600.005371
225.323105	1192.372925	1340.281738	1244.709839	35.384583
225.702881	1267.465088	1308.424438	1233.332275	-83.333382
226.082642	1196.923950	1328.904175	1219.679199	17.241407
226.462357	1251.536499	1342.557251	1287.944824	40.000027
226.842041	1221.954712	1301.597900	1249.260864	34.285610
227.221695	1281.118164	1333.455200	1228.781250	-99.999763
227.601318	1212.852539	1317.526489	1269.740601	54.347870
227.980911	1196.923950	1385.792114	1228.781250	16.867479
228.360474	1215.128052	1376.690063	1178.719727	-22.535202
228.739990	1196.923950	1365.312500	1219.679199	13.513537
229.119476	1221.954712	1456.333252	1219.679199	-0.970871
229.498932	1246.985352	1467.710938	1215.128052	-14.432989
229.878372	1228.781250	1481.364014	1322.077637	36.936958
230.257736	1242.434326	1554.180664	1233.332275	-2.919698
230.637115	1192.372925	1542.803101	1246.985352	15.584396
231.016449	1240.158813	1588.313477	1240.158813	0.000000
231.395737	1278.842651	1549.629639	1212.852539	-24.369751
231.774994	1206.026001	1467.710938	1235.607788	11.304353
232.154221	1219.679199	1424.476074	1267.465088	23.333309
232.533417	1203.750488	1460.884399	1303.873413	38.938049
232.912582	1237.883301	1495.017212	1242.434326	1.769905
233.291702	1240.158813	1513.221313	1226.505737	-4.999982
233.670792	1215.128052	1372.139038	1235.607788	13.043506
234.049866	1237.883301	1408.547363	1283.393677	26.666643
234.428894	1276.567139	1444.955688	1262.914063	-8.108079
234.807892	1206.026001	1435.853638	1226.505737	8.910911
235.186874	1251.536499	1372.139038	1265.189575	11.320721
235.565781	1194.648438	1433.578125	1228.781250	14.285714
235.944687	1192.372925	1435.853638	1299.322388	43.925228
236.323547	1201.474976	1449.506714	1272.016113	28.440367
236.702377	1208.301514	1563.282837	1237.883301	8.333336
237.081177	1180.995239	1501.843750	1212.852539	9.929078
237.459946	1322.077637	1474.537476	1253.812012	-44.776134
237.838669	1260.638550	1492.741699	1187.821899	-31.372540
238.217361	1260.638550	1472.261963	1262.914063	1.075265
238.596039	1219.679199	1458.608887	1242.434326	9.523775
238.974670	1251.536499	1510.945801	1260.638550	3.508760
239.353271	1244.709839	1504.119263	1272.016113	10.526323
239.731842	1199.199463	1447.231201	1315.250977	46.788979
240.110367	1256.087524	1545.078613	1228.781250	-9.448830
240.488876	1228.781250	1522.323364	1208.301514	-6.976763
240.867340	1219.679199	1595.140137	1228.781250	2.424234
241.245789	1253.812012	1586.037964	1235.607788	-5.479471
241.624176	1208.301514	1711.191650	1272.016113	12.669685
242.002548	1294.771362	1649.752563	1240.158813	-15.384631
242.380890	1292.495850	1822.692139	1312.975464	3.862648
242.759186	1192.372925	1843.171875	1226.505737	5.244755
243.137451	1251.536499	1934.192627	1301.597900	7.333326
243.515686	1253.812012	2088.927979	1251.536499	-0.272479
243.893890	1185.546387	2043.417725	1312.975464	14.854101
244.272049	1267.465088	2148.091553	1303.873413	4.134367
244.650192	1237.883301	2075.274902	1310.699951	8.695651
245.028290	1221.954712	1895.508789	1240.158813	2.702693
245.406357	1203.750488	1847.722900	1249.260864	7.067132
245.784393	1199.199463	1804.488037	1269.740601	11.654134
246.162384	1251.536499	1843.171875	1228.781250	-3.846161
246.540359	1242.434326	1925.090576	1242.434326	0.000000
246.918289	1240.158813	2002.458252	1326.628662	11.343291
247.296204	1251.536499	2186.775391	1299.322388	5.109485
247.674057	1215.128052	2464.388916	1269.740601	4.371589
248.051895	1237.883301	2691.941162	1344.832764	7.355241
248.429703	1233.332275	2767.033203	1244.709839	0.741837
248.807465	1285.669312	2839.849854	1372.139038	5.563686
249.185196	1278.842651	2546.307861	1274.291626	-0.359065
249.562897	1240.158813	2373.368164	1253.812012	1.204826
249.940567	1180.995239	2311.929199	1285.669312	9.255543
250.318192	1174.168701	2102.581299	1212.852539	4.166665
250.695801	1210.577026	2088.927979	1328.904175	13.471512
251.073349	1185.546387	1945.570313	1283.393677	12.874238
251.450882	1235.607788	1927.366089	1253.812012	2.631587
251.828400	1281.118164	1879.580200	1312.975464	5.323195
252.205872	1251.536499	1931.917114	1265.189575	2.006682
252.583313	1235.607788	2025.213501	1303.873413	8.645534
252.960693	1185.546387	2091.203613	1344.832764	17.587933
253.338074	1278.842651	2291.449463	1267.465088	-1.123591
253.715408	1260.638550	2239.112549	1249.260864	-1.162799
254.092682	1240.158813	2047.968750	1249.260864	1.126756
254.469955	1142.311401	1890.957764	1338.006226	26.139822
254.847198	1217.403687	1936.468262	1278.842651	8.544291
255.224365	1215.128052	1913.713013	1251.536499	5.211742
255.601563	1269.740601	1877.304688	1237.883301	-5.243447
255.978683	1256.087524	1802.212524	1301.597900	8.333326
256.355743	1199.199463	1859.100464	1317.526489	17.931026
256.732819	1251.536499	1890.957764	1297.046875	7.117432
257.109894	1176.444214	1954.672363	1242.434326	8.479533
257.486877	1226.505737	1909.161987	1283.393677	8.333322
257.863831	1267.465088	2066.172852	1292.495850	3.133907
258.240753	1192.372925	2120.785400	1258.363037	7.107844
258.617645	1219.679199	2198.153076	1299.322388	8.139531
258.994507	1110.454102	2280.071777	1272.016113	13.813232
259.371307	1274.291626	2232.285889	1326.628662	5.463189
259.748108	1162.791138	2509.899414	1310.699951	10.979727
260.124878	1158.240112	2751.104736	1365.312500	12.999999
260.501617	1249.260864	3106.085938	1267.465088	0.980395
260.878296	1297.046875	3319.984863	1385.792114	4.386948
261.254944	1201.474976	3445.138428	1365.312500	7.302232
261.631561	1199.199463	3299.505127	1278.842651	3.791981
262.008179	1167.342163	3056.024414	1413.098389	13.012047
262.384735	1240.158813	2762.482178	1308.424438	4.484305
262.761261	1237.883301	2503.072998	1317.526489	6.294960
263.137695	1199.199463	2373.368164	1328.904175	11.046515
263.514191	1269.740601	2416.603027	1351.659302	7.142853
263.890594	1260.638550	2318.755615	1265.189575	0.430106
264.267029	1249.260864	2373.368164	1221.954712	-2.429141
264.643341	1203.750488	2264.143311	1326.628662	11.587986
265.019653	1226.505737	2191.326416	1287.944824	6.367928
265.395935	1224.230225	2234.561523	1349.383789	12.387379
265.772217	1231.056763	2193.602051	1315.250977	8.747039
266.148407	1228.781250	2264.143311	1278.842651	4.835159
266.524597	1281.118164	2405.225586	1267.465088	-1.214570
266.900726	1226.505737	2441.633789	1390.343262	13.483149
267.276855	1237.883301	2459.837891	1319.802124	6.703917
267.652924	1228.781250	2580.440674	1276.567139	3.535350
268.028992	1183.270874	2539.481201	1281.118164	7.214758
268.404999	1185.546387	2603.195801	1297.046875	7.865167
268.781006	1224.230225	2589.542725	1281.118164	4.166661
269.156921	1155.964600	2589.542725	1328.904175	12.063492
269.532837	1249.260864	2534.930176	1356.210449	8.318592
269.908661	1306.148926	2587.267090	1246.985352	-4.618120
270.284546	1269.740601	2571.338623	1283.393677	1.048947
270.660339	1269.740601	2655.532715	1388.067749	8.538593
271.036133	1244.709839	2587.267090	1276.567139	2.372882
271.411835	1292.495850	2705.594238	1262.914063	-2.093399
271.787537	1183.270874	2858.054199	1408.547363	13.451082
272.163239	1237.883301	3112.912354	1347.108276	5.825242
272.538849	1201.474976	3283.576416	1317.526489	5.573768
272.914459	1215.128052	3324.535889	1431.302612	10.248116
273.290070	1258.363037	3096.983887	1351.659302	5.074253
273.665588	1169.617676	2990.034424	1360.761475	10.500002
274.041046	1294.771362	2994.585449	1415.373901	7.095043
274.416565	1203.750488	2912.666504	1372.139038	9.853530
274.791962	1219.679199	2807.992676	1256.087524	2.292263
275.167389	1274.291626	2796.614990	1294.771362	1.345295
275.542755	1199.199463	2833.023438	1267.465088	4.178273
275.918060	1206.026001	2769.308838	1278.842651	4.657932
276.293365	1151.413574	2792.063965	1276.567139	7.628290
276.668640	1215.128052	2851.227539	1383.516602	10.292072
277.043854	1256.087524	2864.880615	1331.179688	4.667609
277.419037	1292.495850	2990.034424	1372.139038	4.691687
277.794189	1171.893188	3026.442627	1281.118164	5.889569
278.169312	1228.781250	2967.279053	1344.832764	6.675390
278.544373	1258.363037	2885.360352	1301.597900	2.657341
278.919464	1260.638550	2903.564453	1331.179688	4.293629
279.294464	1226.505737	2924.044189	1301.597900	4.423591
279.669464	1153.689087	2871.707275	1351.659302	11.523173
280.044403	1212.852539	2735.176025	1237.883301	1.644247
280.419312	1206.026001	2919.493164	1365.312500	9.296151
280.794189	1208.301514	2955.901611	1335.730713	7.291668
281.169037	1226.505737	3053.749023	1388.067749	8.841845
281.543854	1235.607788	3087.881836	1374.414551	7.493857
281.918671	1251.536499	3124.290039	1312.975464	3.280675
282.293365	1283.393677	3381.423828	1378.965576	4.555315
282.668091	1258.363037	3310.882813	1338.006226	3.880264
283.042786	1249.260864	3506.577637	1378.965576	5.745968
283.417419	1251.536499	3540.710449	1378.965576	5.566597
283.792053	1219.679199	3379.148438	1406.271851	8.640672
284.166595	1249.260864	3333.637939	1442.680176	9.279478
284.541138	1210.577026	3147.045166	1347.108276	7.050529
284.915619	1262.914063	3301.780762	1372.139038	5.357141
285.290100	1283.393677	3363.219727	1390.343262	5.142237
285.664520	1219.679199	3438.312012	1349.383789	5.846149
286.038940	1185.546387	3351.842041	1397.169800	9.768908
286.413300	1228.781250	3604.425049	1426.751587	8.333334
286.787628	1265.189575	3699.996826	1397.169800	5.420562
287.161896	1237.883301	3836.528076	1467.710938	8.844134
287.536194	1180.995239	3870.660889	1378.965576	7.360407
287.910400	1274.291626	3847.905762	1358.485962	3.271443
288.284607	1206.026001	3638.557861	1419.924927	8.793263
288.658752	1253.812012	3340.464600	1415.373901	7.742635
289.032867	1240.158813	3247.168213	1356.210449	5.782317
289.406921	1187.821899	3363.219727	1347.108276	7.322172
289.781006	1190.097412	3447.414063	1367.588013	7.862902
290.154999	1331.179688	3436.036377	1358.485962	1.297299
290.529022	1240.158813	3615.802490	1360.761475	5.076631
290.902954	1251.536499	3738.680664	1399.445313	5.946934
291.276825	1253.812012	3886.589600	1460.884399	7.865168
291.650757	1201.474976	3866.109863	1381.241089	6.746370
292.024597	1233.332275	3841.079102	1422.200562	7.242585
292.398407	1219.679199	3704.547852	1406.271851	7.509155
292.772156	1242.434326	3670.415039	1465.435425	9.184632
293.145905	1249.260864	3531.608398	1401.720825	6.679962
293.519592	1249.260864	3527.057129	1415.373901	7.292708
293.893280	1281.118164	3563.465576	1388.067749	4.685947
294.266907	1246.985352	3574.843262	1440.404663	8.308897
294.640533	1178.719727	3781.915527	1394.894287	8.304199
295.014069	1169.617676	3988.988037	1417.649414	8.797416
295.387604	1258.363037	4102.764160	1390.343262	4.640000
295.761078	1228.781250	4148.274414	1376.690063	5.066250
296.134552	1226.505737	4029.947266	1422.200562	6.980521
296.507996	1217.403687	4000.365479	1426.751587	7.522485
296.881378	1317.526489	4196.060547	1358.485962	1.422928
297.254730	1244.709839	4341.693848	1417.649414	5.584129
297.628021	1206.026001	4639.787109	1431.302612	6.560637
298.001282	1258.363037	4623.858398	1419.924927	4.800538
298.374573	1253.812012	4705.776855	1463.159912	6.064601
298.747803	1169.617676	4519.184082	1469.986450	8.967393
299.121002	1244.709839	4348.520020	1351.659302	3.445748
299.494141	1162.791138	4120.968262	1340.281738	5.999999
299.867188	1135.484863	4009.467773	1449.506714	10.926365
300.240265	1183.270874	3886.589600	1444.955688	9.680131
300.613312	1287.944824	3936.650879	1399.445313	4.209621
300.986328	1196.923950	3932.099854	1449.506714	9.234608
301.359314	1242.434326	3852.456787	1406.271851	6.277246
301.732239	1206.026001	3786.466553	1415.373901	8.112875
302.105103	1262.914063	3674.966064	1403.996338	5.849056
302.477997	1260.638550	3756.884766	1392.618774	5.287148
302.850830	1185.546387	3963.957275	1415.373901	8.271905
303.223602	1235.607788	3699.996826	1460.884399	9.141275
303.596375	1219.679199	3638.557861	1406.271851	7.714015
303.969116	1219.679199	3613.527100	1381.241089	6.749046
304.341766	1194.648438	3540.710449	1315.250977	5.140637
304.714478	1233.332275	3572.567627	1324.353149	3.891052
305.087067	1242.434326	3581.669678	1413.098389	7.295720
305.459656	1231.056763	3561.189941	1328.904175	4.199220
305.832214	1269.740601	3634.006836	1419.924927	6.352260
306.204681	1297.046875	3438.312012	1383.516602	4.038254
306.577148	1260.638550	3533.883789	1394.894287	5.905907
306.949646	1265.189575	3574.843262	1401.720825	5.911330
307.322021	1281.118164	3608.976074	1392.618774	4.789837
307.694397	1237.883301	3547.536865	1358.485962	5.221677
308.066742	1308.424438	3481.546875	1394.894287	3.979060
308.439026	1253.812012	3586.220703	1390.343262	5.853659
308.811279	1276.567139	3950.304199	1367.588013	3.404257
309.183502	1258.363037	3904.793701	1401.720825	5.417024
309.555695	1242.434326	3954.855225	1358.485962	4.278526
309.927887	1244.709839	3866.109863	1440.404663	7.465279
310.299988	1169.617676	3966.232666	1417.649414	8.868999
310.672058	1162.791138	4020.845215	1415.373901	8.837578
311.044128	1228.781250	4218.815430	1363.036987	4.490107
311.416168	1251.536499	4189.233887	1349.383789	3.330748
311.788147	1171.893188	4011.743164	1365.312500	6.810899
312.160065	1215.128052	4109.590332	1385.792114	5.896226
312.531982	1212.852539	4182.407227	1406.271851	6.513412
312.903870	1208.301514	4050.427002	1401.720825	6.805446
313.275696	1272.016113	3895.691650	1326.628662	2.081528
313.647491	1146.862427	3927.548828	1331.179688	6.628480
314.019318	1240.158813	3841.079102	1367.588013	4.899389
314.391022	1281.118164	3800.119629	1444.955688	6.504066
314.762726	1253.812012	3884.313965	1385.792114	5.017297
315.134369	1242.434326	4048.151611	1335.730713	3.325224
315.505981	1246.985352	4266.601563	1374.414551	4.220046
315.877594	1199.199463	4191.509277	1372.139038	5.779468
316.249146	1187.821899	4189.233887	1390.343262	6.747536
316.620636	1169.617676	4023.120850	1394.894287	7.894738
316.992157	1301.597900	3831.977051	1399.445313	3.866907
317.363586	1287.944824	3699.996826	1358.485962	2.924528
317.735016	1178.719727	3697.721191	1435.853638	10.207771
318.106354	1187.821899	3809.221924	1385.792114	7.552080
318.477722	1208.301514	3763.711426	1410.822876	7.925200
318.849060	1206.026001	3722.751953	1372.139038	6.600362
319.220306	1190.097412	3718.200928	1365.312500	6.930693
319.591522	1199.199463	3861.558838	1392.618774	7.264959
319.962738	1192.372925	3836.528076	1363.036987	6.454389
320.333923	1262.914063	3836.528076	1338.006226	2.917771
320.705017	1294.771362	3731.854004	1383.516602	3.641454
321.076111	1215.128052	3768.262451	1301.597900	3.386812
321.447144	1269.740601	3661.312988	1347.108276	3.235013
321.818176	1258.363037	3695.445801	1372.139038	4.668532
322.189178	1249.260864	3688.619141	1333.455200	3.451495
322.560120	1276.567139	3809.221924	1283.393677	0.269541
322.931030	1233.332275	3684.068115	1378.965576	5.942431
323.301910	1240.158813	3968.508301	1374.414551	4.920767
323.672729	1237.883301	4068.631104	1369.863525	4.662380
324.043549	1142.311401	4216.540039	1326.628662	5.995562
324.414337	1217.403687	4394.030762	1388.067749	5.372493
324.785095	1208.301514	4475.949219	1378.965576	5.222842
325.155792	1217.403687	4669.368652	1429.027100	6.130520
325.526428	1260.638550	4594.276367	1385.792114	3.754264
325.897034	1226.505737	4546.490723	1287.944824	1.850583
326.267670	1199.199463	4369.000000	1219.679199	0.646089
326.638184	1206.026001	4482.775879	1388.067749	5.555558
327.008728	1258.363037	4469.123047	1385.792114	3.968813
327.379211	1281.118164	4460.020996	1347.108276	2.075877
327.749634	1215.128052	4387.204102	1401.720825	5.882355
328.120026	1199.199463	4143.723145	1372.139038	5.873261
328.490417	1265.189575	4264.326172	1374.414551	3.641881
328.860748	1212.852539	4100.488281	1335.730713	4.255321
329.231079	1276.567139	4150.549805	1358.485962	2.850359
329.601318	1306.148926	4209.713379	1356.210449	1.724140
329.971558	1203.750488	4350.795898	1297.046875	2.964571
330.341736	1210.577026	4332.591797	1283.393677	2.332361
330.711914	1215.128052	4207.437988	1358.485962	4.790877
331.082062	1212.852539	4250.672852	1331.179688	3.895133
331.452148	1201.474976	4271.152344	1369.863525	5.485546
331.822174	1212.852539	4293.907715	1347.108276	4.357460
332.192200	1183.270874	4321.213867	1406.271851	7.106598
332.562134	1158.240112	4432.714355	1403.996338	7.505212
332.932129	1178.719727	4398.581543	1303.873413	3.886927
333.302063	1274.291626	4623.858398	1349.383789	2.241847
333.671906	1249.260864	4726.256836	1369.863525	3.468588
334.041718	1281.118164	4632.960449	1306.148926	0.746776
334.411499	1169.617676	4926.502441	1353.934937	4.906120
334.781281	1292.495850	4660.266602	1383.516602	2.702700
335.151001	1262.914063	4719.430176	1394.894287	3.818302
335.520721	1203.750488	4560.143555	1310.699951	3.186440
335.890350	1226.505737	4683.021973	1356.210449	3.752470
336.259979	1272.016113	4749.011719	1394.894287	3.534033
336.629547	1233.332275	4719.430176	1344.832764	3.198432
336.999084	1224.230225	4578.347656	1324.353149	2.985075
337.368622	1294.771362	4710.328125	1331.179688	1.065956
337.738098	1244.709839	4698.950684	1228.781250	-0.461131
338.107513	1217.403687	4701.226074	1408.547363	5.486608
338.476898	1196.923950	4630.685059	1417.649414	6.428096
338.846252	1226.505737	4712.603516	1351.659302	3.590076
339.215576	1199.199463	4867.338867	1378.965576	4.900744
339.584869	1306.148926	4667.093262	1363.036987	1.692621
339.954132	1169.617676	4696.674805	1363.036987	5.483872
340.323334	1276.567139	4539.664063	1367.588013	2.789402
340.692505	1244.709839	4535.112793	1340.281738	2.904565
341.061646	1233.332275	4537.388672	1301.597900	2.066116
341.430786	1237.883301	4523.735352	1326.628662	2.700833
341.799896	1201.474976	4660.266602	1374.414551	5.000000
342.168915	1199.199463	4717.154785	1319.802124	3.428203
342.537903	1201.474976	4974.288574	1372.139038	4.523522
342.906830	1290.220337	4944.706543	1413.098389	3.362389
343.275757	1210.577026	4956.084473	1444.955688	6.257595
343.644684	1196.923950	4887.818848	1303.873413	2.897657
344.013550	1246.985352	4976.563965	1326.628662	2.135451
344.382355	1237.883301	5204.116211	1413.098389	4.417670
344.751129	1226.505737	5336.096191	1360.761475	3.266889
345.119873	1219.679199	5625.087402	1444.955688	5.113635
345.488586	1187.821899	5827.608887	1378.965576	4.119665
345.857269	1217.403687	6066.538574	1415.373901	4.082588
346.225891	1217.403687	6011.925781	1408.547363	3.986710
346.594482	1258.363037	5973.242188	1495.017212	5.019306
346.963043	1208.301514	5959.588867	1413.098389	4.310345
347.331543	1258.363037	5477.178711	1392.618774	3.182309
347.700043	1294.771362	5540.893066	1417.649414	2.893889
348.068512	1308.424438	5320.167480	1367.588013	1.474760
348.436951	1310.699951	5261.003906	1401.720825	2.304149
348.805328	1253.812012	5174.534180	1417.649414	4.178756
349.173645	1215.128052	5067.584961	1408.547363	5.020674
349.541931	1281.118164	5185.912109	1317.526489	0.932401
349.910217	1272.016113	5224.595703	1399.445313	3.223950
350.278473	1240.158813	5386.157715	1342.557251	2.469813
350.646667	1242.434326	5484.005371	1492.741699	5.901289
351.014801	1160.515625	5627.362793	1358.485962	4.431993
351.382935	1258.363037	5631.914063	1442.680176	4.214359
351.751007	1240.158813	5522.688965	1424.476074	4.303934
352.119049	1199.199463	5677.424316	1392.618774	4.319107
352.487091	1171.893188	5593.229980	1424.476074	5.712817
352.855072	1192.372925	5625.087402	1424.476074	5.236140
353.222992	1267.465088	5622.812012	1429.027100	3.709510
353.590881	1299.322388	5795.751465	1429.027100	2.884616
353.958740	1226.505737	6030.129883	1390.343262	3.410707
354.326599	1199.199463	6168.937012	1481.364014	5.677655
354.694397	1242.434326	6319.121094	1454.057739	4.168534
355.062134	1192.372925	6501.163086	1447.231201	4.800685
355.429840	1180.995239	6391.937988	1385.792114	3.930131
355.797516	1201.474976	6494.336426	1474.537476	5.159071
356.165192	1237.883301	6635.418457	1460.884399	4.131536
356.532776	1210.577026	6897.103516	1467.710938	4.521810
356.900360	1130.933838	7156.512695	1422.200562	4.833838
357.267883	1224.230225	7131.482422	1495.017212	4.583976
357.635376	1267.465088	7511.494141	1483.639526	3.462098
358.002808	1242.434326	7932.465332	1447.231201	3.061224
358.370270	1283.393677	8187.323730	1549.629639	3.856296
358.737640	1272.016113	8210.079102	1490.466064	3.148573
359.105011	1253.812012	8091.751953	1545.078613	4.259566
359.472321	1233.332275	7657.127441	1510.945801	4.321644
359.839569	1153.689087	7543.351563	1447.231201	4.594016
360.206787	1231.056763	7584.311035	1463.159912	3.653295
360.574005	1231.056763	7950.669922	1547.354126	4.707077
360.941193	1217.403687	8141.813477	1622.446289	5.849489
361.308319	1258.363037	8699.316406	1556.456177	4.006115
361.675415	1212.852539	9290.951172	1522.323364	3.830986
362.042450	1224.230225	9570.840820	1590.588989	4.389312
362.409424	1283.393677	10344.517578	1636.099487	3.892517
362.776428	1231.056763	10590.273438	1592.864502	3.865791
363.143402	1306.148926	10230.741211	1595.140137	3.238145
363.510284	1231.056763	9579.942383	1645.201538	4.960480
363.877136	1249.260864	8412.600586	1501.843750	3.526049
364.243988	1267.465088	7871.026367	1524.598877	3.893865
364.610779	1242.434326	7663.954102	1506.394775	4.110560
364.977539	1240.158813	7645.750000	1529.150024	4.511546
365.344269	1210.577026	7443.228516	1472.261963	4.198614
365.710938	1226.505737	7204.298828	1526.874512	5.024744
366.077576	1276.567139	7147.410645	1499.568237	3.798450
366.444183	1297.046875	6719.612793	1506.394775	3.860680
366.810760	1219.679199	6890.276855	1438.129150	3.852327
367.177277	1180.995239	7065.492188	1449.506714	4.563032
367.543823	1206.026001	7072.318848	1433.578125	3.878977
367.910248	1235.607788	7099.625000	1506.394775	4.617773
368.276642	1244.709839	7019.981445	1508.670288	4.570529
368.643036	1215.128052	6774.225586	1506.394775	5.239460
369.009399	1267.465088	6890.276855	1449.506714	3.237555
369.375671	1251.536499	6610.387695	1422.200562	3.184714
369.741974	1251.536499	6573.979492	1410.822876	2.992731
370.108215	1183.270874	6665.000488	1458.608887	5.022831
370.474396	1338.006226	6669.551270	1499.568237	3.030304
370.840546	1299.322388	6603.561523	1410.822876	2.102101
371.206665	1228.781250	6892.552734	1495.017212	4.700683
371.572784	1272.016113	6878.899414	1429.027100	2.800326
371.938843	1231.056763	6958.542480	1465.435425	4.092174
372.304840	1242.434326	7151.961914	1501.843750	4.389681
372.670807	1215.128052	7274.839844	1520.047852	5.031919
373.036713	1246.985352	7199.748047	1510.945801	4.434251
373.402649	1244.709839	7022.257324	1460.884399	3.741632
373.768524	1244.709839	6906.205566	1608.793213	6.430869
374.134308	1256.087524	6960.818359	1469.986450	3.749501
374.500122	1244.709839	7056.390137	1490.466064	4.228661
374.865875	1253.812012	7186.094727	1456.333252	3.413884
375.231567	1244.709839	7206.574219	1572.384888	5.496184
375.597260	1160.515625	7247.533691	1510.945801	5.757009
375.962891	1224.230225	7440.953125	1540.527588	5.087847
376.328461	1224.230225	7504.667480	1611.068726	6.159420
376.694031	1253.812012	7816.414063	1631.548462	5.755895
377.059540	1203.750488	8107.680664	1606.517700	5.833883
377.425049	1206.026001	8487.692383	1588.313477	5.250000
377.790497	1196.923950	8774.408203	1692.987427	6.546546
378.155945	1265.189575	8922.317383	1679.334351	5.408617
378.521301	1226.505737	8849.500000	1629.272949	5.283583
378.886597	1235.607788	8797.163086	1677.058838	5.838099
379.251892	1231.056763	8307.926758	1636.099487	5.723473
379.617157	1297.046875	8055.343750	1611.068726	4.646464
379.982422	1158.240112	7823.240723	1567.833862	6.145442
380.347595	1240.158813	7732.219727	1606.517700	5.643183
380.712738	1190.097412	7723.117676	1599.691162	6.269592
381.077820	1196.923950	7709.464355	1665.681274	7.197764
381.442902	1185.546387	7618.443848	1626.997314	6.862396
381.807953	1215.128052	7743.597168	1622.446289	6.239108
382.172974	1244.709839	7679.882813	1677.058838	6.718530
382.537933	1155.964600	7830.066895	1626.997314	7.057619
382.902832	1228.781250	7736.770508	1586.037964	5.489510
383.267700	1212.852539	7732.219727	1788.559326	8.830716
383.632538	1215.128052	8082.649902	1661.130127	6.494367
383.997345	1183.270874	8014.384277	1626.997314	6.495668
384.362152	1258.363037	8180.497070	1711.191650	6.541749
384.726898	1260.638550	8385.293945	1695.262939	6.100286
385.091553	1194.648438	8551.407227	1683.885376	6.650170
385.456238	1196.923950	8433.080078	1729.395752	7.358490
385.820862	1224.230225	8419.426758	1752.151001	7.337128
386.185425	1240.158813	8342.059570	1754.426514	7.241268
386.549988	1210.577026	8435.355469	1772.630737	7.779529
386.914490	1196.923950	8569.611328	1784.008301	7.962963
387.278961	1235.607788	8553.682617	1856.824951	8.488806
387.643372	1203.750488	8890.459961	1772.630737	7.400829
388.007782	1190.097412	8881.357422	1836.345337	8.402368
388.372101	1171.893188	9040.644531	1886.406738	9.080393
388.736450	1240.158813	9140.766602	1847.722900	7.690093
389.100739	1274.291626	8869.980469	1875.029175	7.908928
389.464966	1226.505737	8856.327148	1941.019287	9.364748
389.829163	1196.923950	8733.449219	1909.161987	9.450482
390.193329	1258.363037	8583.264648	1966.049927	9.661385
390.557495	1258.363037	8667.458984	1897.784302	8.630220
390.921570	1303.873413	9015.613281	1884.131226	7.524344
391.285614	1353.934937	9065.674805	1950.121338	7.730894
391.649597	1171.893188	9434.309570	2029.764526	10.382814
392.013550	1180.995239	9752.881836	2118.509766	10.937085
392.377502	1215.128052	10246.669922	2032.040039	9.045100
392.741455	1192.372925	10289.905273	2050.244141	9.429713
393.105316	1224.230225	9975.882813	2088.927979	9.880394
393.469086	1199.199463	9823.422852	2125.336426	10.738787
393.832886	1178.719727	9862.107422	2054.795166	10.089097
394.196655	1233.332275	9702.820313	2045.693237	9.591618
394.560333	1260.638550	9912.168945	2127.612061	10.021042
394.924042	1140.035889	10035.046875	2113.958740	10.949091
395.287659	1180.995239	10016.842773	2234.561523	11.923772
395.651245	1151.413574	9882.586914	2159.469238	11.545477
396.014771	1240.158813	9652.758789	2175.397949	11.117124
396.378296	1246.985352	9418.380859	2182.224365	11.445279
396.741791	1128.658325	9306.879883	2118.509766	12.103504
397.105255	1185.546387	9254.542969	2084.376953	11.139310
397.468628	1272.016113	8910.939453	2109.407715	10.962168
397.832001	1265.189575	9152.144531	2066.172852	10.155799
398.195313	1256.087524	9026.991211	2063.897461	10.395315
398.558624	1199.199463	8986.031250	2179.948975	12.594975
398.921844	1294.771362	8990.583008	2161.744873	11.265524
399.285095	1237.883301	8929.143555	2093.479248	11.124262
399.648254	1199.199463	9202.206055	2204.979736	12.567530
400.011383	1242.434326	9306.879883	2264.143311	12.669303
400.374451	1262.914063	8765.305664	2148.091553	11.798604
400.737549	1240.158813	9143.042969	2189.051025	12.006910
401.100586	1292.495850	9108.910156	2134.438477	10.771469
401.463562	1231.056763	9140.766602	2236.836914	12.715765
401.826508	1210.577026	9420.656250	2266.418701	12.860311
402.189392	1153.689087	9042.919922	2223.183838	13.556388
402.552246	1176.444214	9131.665039	2268.694336	13.729979
402.915070	1294.771362	9213.583984	2346.062012	13.275863
403.277893	1260.638550	9452.513672	2291.449463	12.583333
403.640656	1242.434326	9579.942383	2371.092773	13.537120
404.003326	1201.474976	10000.914063	2346.062012	13.007500
404.366028	1231.056763	9887.137695	2509.899414	14.773922
404.728699	1171.893188	10574.344727	2544.032227	14.593418
405.091248	1278.842651	10603.926758	2573.614014	13.884823
405.453857	1281.118164	10738.182617	2596.369141	13.907603
405.816345	1246.985352	10483.324219	2562.236328	14.239960
406.178833	1249.260864	10405.957031	2573.614014	14.463221
406.541260	1199.199463	10626.682617	2589.542725	14.747766
406.903687	1258.363037	10362.721680	2580.440674	14.521371
407.266052	1224.230225	10148.823242	2546.307861	14.813870
407.628387	1260.638550	10012.291992	2653.257324	15.912637
407.990662	1290.220337	9789.290039	2594.093750	15.341367
408.352905	1265.189575	9832.525391	2555.409912	15.059761
408.715118	1206.026001	10057.801758	2644.155273	16.246790
409.077332	1240.158813	10089.659180	2648.706299	15.916690
409.439484	1174.168701	9953.127930	2732.900391	17.755314
409.801575	1206.026001	9973.607422	2671.461426	16.714251
410.163605	1212.852539	9996.363281	2694.216553	16.865284
410.525635	1201.474976	10428.711914	2762.482178	16.917385
410.887604	1210.577026	10565.243164	2744.278076	16.395039
411.249573	1180.995239	10551.589844	2869.431641	18.018456
411.611481	1235.607788	10565.243164	2794.339600	16.707317
411.973328	1244.709839	10519.732422	2778.410889	16.535820
412.335144	1194.648438	10246.669922	2751.104736	17.194571
412.696930	1206.026001	10155.649414	2703.318604	16.730230
413.058685	1244.709839	10237.568359	2723.798340	16.447369
413.420410	1183.270874	10141.996094	2753.380127	17.526033
413.782104	1210.577026	10351.343750	2776.135498	17.127213
414.143707	1208.301514	10217.088867	2771.584229	17.352865
414.505310	1224.230225	10294.456055	2751.104736	16.833920
414.866852	1203.750488	10442.365234	2833.023438	17.635468
415.228394	1237.883301	10594.825195	2821.645752	16.926069
415.589874	1208.301514	10838.305664	2823.921387	16.776939
415.951324	1217.403687	11122.746094	2873.982666	16.724096
416.312683	1224.230225	11279.756836	2873.982666	16.406425
416.674072	1208.301514	11368.501953	2980.932129	17.446808
417.035370	1178.719727	11784.921875	2958.177002	16.777515
417.396667	1215.128052	11905.524414	3026.442627	16.943380
417.757935	1290.220337	12092.117188	3099.259277	16.747419
418.119141	1294.771362	12731.539063	3108.361328	15.857540
418.480286	1183.270874	12881.723633	3115.187988	16.514296
418.841400	1228.781250	13366.409180	3242.617188	16.591677
419.202484	1244.709839	13887.503906	3313.158203	16.360689
419.563568	1249.260864	14388.118164	3283.576416	15.483200
419.924591	1203.750488	15157.244141	3481.546875	16.324202
420.285553	1262.914063	15409.827148	3709.098877	17.291298
420.646484	1244.709839	16210.810547	3704.547852	16.436064
421.007355	1256.087524	16884.365234	3754.609375	15.987187
421.368225	1219.679199	17639.837891	3850.181152	16.019955
421.729065	1297.046875	18115.421875	3866.109863	15.275334
422.089874	1267.465088	18518.187500	4175.580566	16.857935
422.450592	1262.914063	18575.076172	4184.682617	16.876970
422.811279	1210.577026	18636.515625	4200.611328	17.158525
423.171936	1210.577026	18238.298828	4157.376465	17.305893
423.532593	1246.985352	17846.910156	4323.489746	18.533241
423.893127	1201.474976	18108.593750	4232.468750	17.927322
424.253723	1162.791138	18716.158203	4357.622559	18.200676
424.614197	1233.332275	18522.740234	4371.275391	18.149511
424.974670	1233.332275	18982.394531	4610.205078	19.025640
425.335052	1333.455200	19421.570313	4703.501465	18.631275
425.695496	1183.270874	18304.289063	4414.510254	18.872940
426.055817	1183.270874	18718.433594	4541.939453	19.153906
426.416168	1226.505737	18079.013672	4487.327148	19.349174
426.776398	1192.372925	17391.804688	4403.132813	19.820200
427.136627	1190.097412	16711.423828	4255.224121	19.747841
427.496826	1233.332275	16417.882813	4155.101074	19.241720
427.856995	1174.168701	15971.880859	4182.407227	20.329079
428.217102	1262.914063	15259.642578	3979.885986	19.411478
428.577179	1306.148926	15261.917969	4000.365479	19.305395
428.937195	1221.954712	14916.039063	3920.722412	19.707544
429.297180	1262.914063	14328.954102	3738.680664	18.948103
429.657135	1315.250977	14472.312500	3745.507324	18.471117
430.017059	1210.577026	14540.578125	3838.803711	19.716627
430.376984	1226.505737	14297.097656	3738.680664	19.220055
430.736786	1224.230225	13944.391602	3731.854004	19.713774
431.096588	1249.260864	14074.095703	3665.864014	18.843151
431.456360	1208.301514	14046.790039	3670.415039	19.177597
431.816071	1253.812012	13596.236328	3681.792725	19.671831
432.175781	1171.893188	13821.513672	3702.272461	20.003599
432.535400	1249.260864	13653.125000	3722.751953	19.941296
432.895020	1219.679199	13844.268555	3695.445801	19.610670
433.254578	1276.567139	14096.851563	3845.630127	20.039049
433.614105	1185.546387	14256.137695	3886.589600	20.665041
433.973602	1185.546387	14367.638672	3891.140625	20.524771
434.333038	1231.056763	14620.220703	4036.773926	20.955133
434.692444	1308.424438	14567.883789	3998.090088	20.284882
435.051819	1215.128052	14797.711914	4164.203125	21.712181
435.411133	1208.301514	14984.304688	4284.805664	22.332342
435.770416	1153.689087	14404.046875	4211.988770	23.080885
436.129669	1224.230225	14797.711914	4234.744141	22.179379
436.488861	1210.577026	14413.148438	4211.988770	22.733538
436.848083	1158.240112	14467.761719	4366.724609	24.106684
437.207184	1212.852539	14633.874023	4371.275391	23.533401
437.566254	1194.648438	15009.334961	4528.286621	24.131117
437.925293	1210.577026	14615.669922	4446.367676	24.138517
438.284363	1228.781250	14820.466797	4626.133789	24.995815
438.643311	1206.026001	15284.672852	4755.838379	25.214161
439.002258	1292.495850	15327.908203	4698.950684	24.270430
439.361145	1253.812012	15434.857422	4946.982422	26.043007
439.719971	1306.148926	16260.872070	4987.941406	24.619596
440.078827	1224.230225	16556.689453	5147.228027	25.586227
440.437592	1212.852539	16693.220703	5270.105957	26.209024
440.796295	1269.740601	17098.263672	5479.454102	26.595743
441.155029	1258.363037	18181.412109	5647.842773	25.937876
441.513672	1249.260864	18613.759766	5841.261719	26.444767
441.872253	1194.648438	18415.789063	5966.415527	27.708775
442.230865	1256.087524	17997.093750	5823.057617	27.280142
442.589386	1269.740601	17762.714844	5722.935059	27.000553
442.947876	1153.689087	17644.388672	5786.649414	28.094385
443.306335	1281.118164	17362.224609	5866.292480	28.512804
443.664764	1251.536499	16515.730469	5506.760254	27.877159
444.023102	1237.883301	16918.498047	5736.587891	28.689592
444.381500	1212.852539	16902.568359	5652.393555	28.295866
444.739777	1210.577026	16718.251953	5722.935059	29.097578
445.098022	1210.577026	17025.447266	5825.333008	29.179853
445.456238	1244.709839	17293.958984	5725.210449	27.917196
445.814423	1244.709839	17737.685547	6046.058594	29.111475
446.172577	1244.709839	18317.943359	6212.171875	29.095026
446.530701	1221.954712	19007.425781	6330.499023	28.723133
446.888733	1262.914063	19253.181641	6628.592285	29.825449
447.246765	1324.353149	20233.931641	6653.623047	28.182913
447.604736	1242.434326	19296.416016	6476.132324	28.989162
447.962677	1228.781250	19835.714844	6653.623047	29.154947
448.320587	1185.546387	20293.093750	7026.808105	30.570442
448.678436	1194.648438	19790.205078	6546.673340	28.781202
449.036255	1194.648438	19555.826172	6633.143066	29.619530
449.394043	1233.332275	18208.716797	6291.814941	29.798927
449.751770	1155.964600	18313.390625	6376.009277	30.424406
450.109467	1265.189575	18003.919922	6212.171875	29.554108
450.467163	1246.985352	17712.654297	6027.854492	29.035379
450.824768	1215.128052	17571.572266	6091.569336	29.813580
451.182343	1283.393677	17346.294922	5975.517578	29.210938
451.539886	1162.791138	16715.976563	5813.955566	29.904900
451.897369	1142.311401	16938.976563	5820.782227	29.616825
452.254822	1242.434326	16777.414063	5745.689941	28.987846
452.612274	1187.821899	17359.947266	5941.384766	29.393559
452.969635	1221.954712	17036.824219	5864.017090	29.352520
453.326965	1192.372925	17020.896484	5898.149902	29.729727
453.684326	1192.372925	16861.609375	5854.915039	29.756025
454.041534	1235.607788	16235.840820	5661.495605	29.505459
454.398773	1221.954712	16190.330078	5497.658203	28.564915
454.755951	1233.332275	15771.634766	5443.045898	28.956020
455.113098	1192.372925	15191.376953	5267.830566	29.112482
455.470215	1194.648438	15318.805664	5456.698730	30.175608
455.827240	1221.954712	15455.336914	5427.117188	29.544367
456.184265	1196.923950	14975.202148	5404.361816	30.536747
456.541260	1235.607788	15309.704102	5235.973145	28.423601
456.898193	1208.301514	15241.438477	5370.229004	29.657858
457.255096	1267.465088	15355.214844	5297.412598	28.606041
457.611969	1244.709839	15123.111328	5295.136719	29.185110
457.968781	1210.577026	15546.358398	5311.065430	28.603172
458.325531	1162.791138	15468.990234	5363.402344	29.362175
458.682312	1153.689087	16103.860352	5643.291504	30.030443
459.039001	1178.719727	17029.998047	5704.730469	28.552971
459.395630	1224.230225	18122.248047	5864.017090	27.457582
459.752289	1272.016113	19023.353516	6423.795410	29.021921
460.108856	1185.546387	20518.371094	6785.603027	28.966574
460.465363	1258.363037	21348.935547	6915.307617	28.157209
460.821899	1228.781250	21310.251953	7010.879395	28.793201
461.178345	1281.118164	20634.421875	6687.755859	27.936508
461.534760	1201.474976	20145.185547	6860.695313	29.873873
461.891144	1265.189575	19469.355469	6439.723633	28.424999
462.247467	1265.189575	18468.126953	6107.498047	28.148149
462.603760	1274.291626	18317.943359	5955.038086	27.463284
462.960052	1267.465088	17387.253906	5679.699707	27.371540
463.316254	1187.821899	16854.783203	5581.852539	28.046478
463.672424	1194.648438	16572.617188	5595.505859	28.617937
464.028564	1262.914063	16060.625977	5229.146973	26.803015
464.384644	1256.087524	16140.269531	5272.381836	26.983643
464.740723	1265.189575	16153.921875	5365.678223	27.540886
465.096741	1269.740601	16083.380859	5179.085449	26.390169
465.452698	1212.852539	15944.574219	5345.198242	28.050663
465.808655	1231.056763	16090.208008	5472.627441	28.545176
466.164520	1196.923950	15971.880859	5238.249023	27.352535
466.520355	1215.128052	16570.341797	5493.107422	27.860109
466.876190	1212.852539	16900.292969	5458.974609	27.067017
467.231964	1210.577026	16659.087891	5340.647461	26.734425
467.587677	1242.434326	17318.988281	5729.761230	27.912245
467.943390	1208.301514	17587.500000	5604.607910	26.840794
468.299011	1187.821899	16756.935547	5707.006348	29.026602
468.654633	1190.097412	16677.291016	5536.342285	28.063478
469.010223	1169.617676	16775.138672	5540.893066	28.011082
469.365723	1244.709839	16388.300781	5326.994141	26.957174
469.721191	1206.026001	16700.046875	5292.861328	26.376856
470.076660	1260.638550	15874.033203	5154.054688	26.642790
470.432068	1208.301514	16217.636719	4981.115234	25.136448
470.787445	1167.342163	15839.900391	5019.798828	26.256201
471.142792	1233.332275	15867.207031	5165.432129	26.869846
471.498016	1269.740601	16320.035156	5131.299316	25.657694
471.853271	1228.781250	16069.727539	5192.738281	26.709597
472.208496	1228.781250	16072.003906	5035.727539	25.647707
472.563660	1192.372925	16379.198242	5067.584961	25.516932
472.918762	1210.577026	16613.578125	5147.228027	25.557688
473.273865	1246.985352	16847.955078	5183.636230	25.233374
473.628876	1242.434326	17532.888672	5386.157715	25.436514
473.983917	1212.852539	17476.000000	5258.728516	24.877571
474.338837	1226.505737	17359.947266	5208.666992	24.682652
474.693787	1206.026001	17378.152344	5210.942871	24.764320
475.048645	1251.536499	17082.333984	5270.105957	25.384502
475.403503	1215.128052	17630.734375	5267.830566	24.688110
475.758270	1217.403687	17526.060547	5322.443359	25.170923
476.113037	1244.709839	17252.998047	5199.564941	24.705046
476.467773	1219.679199	17967.511719	5406.637207	25.000000
476.822418	1269.740601	18734.363281	5581.852539	24.690552
477.177063	1208.301514	18440.820313	5367.953613	24.138388
477.531647	1256.087524	19077.966797	5556.821777	24.131767
477.886200	1283.393677	19439.773438	5563.648438	23.574387
478.240723	1274.291626	19863.021484	5759.343262	24.127800
478.595184	1228.781250	19842.541016	5670.597656	23.863081
478.949585	1237.883301	20584.361328	5827.608887	23.723829
479.303986	1176.444214	20584.361328	5711.557129	23.367332
479.658325	1162.791138	21278.394531	5727.485840	22.692308
480.012634	1178.719727	21009.882813	5763.894043	23.121056
480.366913	1217.403687	21628.826172	5798.026855	22.441469
480.721130	1226.505737	22163.572266	5900.425293	22.323660
481.075317	1206.026001	22454.839844	6080.191406	22.938530
481.429474	1187.821899	23765.539063	6155.283691	22.001614
481.783569	1235.607788	24502.808594	6312.294922	21.819071
482.137604	1203.750488	25542.720703	6558.050781	21.998877
482.491669	1272.016113	28334.785156	7049.563477	21.348692
482.845612	1176.444214	30655.816406	7666.229492	22.014666
483.199554	1187.821899	34166.945313	8321.579102	21.631130
483.553436	1215.128052	40363.187500	9589.044922	21.390377
483.907318	1292.495850	47221.609375	11195.562500	21.561632
484.261139	1246.985352	53802.414063	12585.905273	21.575163
484.614899	1253.812012	56687.773438	13607.614258	22.285622
484.968628	1315.250977	56644.539063	13650.849609	22.294880
485.322357	1228.781250	54510.101563	12642.793945	21.422165
485.675964	1249.260864	51294.789063	11803.125977	21.088528
486.029572	1246.985352	47205.679688	10813.274414	20.814970
486.383148	1256.087524	43653.589844	9925.821289	20.448689
486.736694	1235.607788	41107.285156	9457.064453	20.619793
487.090149	1244.709839	41309.804688	9347.839844	20.224913
487.443604	1267.465088	42458.941406	9527.605469	20.053034
487.796997	1119.556274	43940.308594	9734.677734	20.119032
488.150360	1215.128052	45651.500000	9975.882813	19.715281
488.503693	1240.158813	46825.667969	10169.302734	19.587681
488.856964	1262.914063	45480.835938	9800.667969	19.308357
489.210175	1253.812012	43394.183594	9254.542969	18.985905
489.563416	1285.669312	40982.128906	8924.592773	19.243336
489.916565	1192.372925	38649.722656	8319.303711	19.026787
490.269653	1206.026001	36230.843750	7786.832031	18.788980
490.622772	1256.087524	34678.937500	7413.646973	18.423203
490.975769	1178.719727	34526.476563	7502.392090	18.962811
491.328735	1272.016113	36183.054688	7757.250488	18.576458
491.681732	1262.914063	38012.574219	8059.894531	18.495356
492.034607	1249.260864	40235.757813	8285.170898	18.047045
492.387482	1253.812012	40970.753906	8232.833984	17.571901
492.740326	1199.199463	40765.957031	8207.803711	17.713366
493.093079	1260.638550	38988.773438	7877.853027	17.539202
493.445862	1228.781250	35231.886719	7359.034180	18.028509
493.798523	1215.128052	32874.449219	6769.674316	17.544743
494.151215	1217.403687	30460.121094	6337.325195	17.508364
494.503815	1240.158813	27938.843750	5845.812988	17.250490
494.856384	1233.332275	26607.664063	5659.220215	17.442381
495.208923	1217.403687	25504.037109	5174.534180	16.293449
495.561432	1199.199463	24748.564453	5106.268555	16.590975
495.913879	1217.403687	24127.347656	5097.166504	16.934841
496.266296	1274.291626	24402.685547	4942.431152	15.859898
496.618683	1265.189575	24507.359375	4978.839355	15.978068
496.970978	1221.954712	25073.962891	5140.401367	16.428164
497.323273	1219.679199	25228.699219	5058.482910	15.989007
497.675507	1249.260864	25574.578125	5135.850586	15.977551
498.027710	1256.087524	25626.916016	5076.687012	15.676938
498.379852	1272.016113	25340.199219	4981.115234	15.410798
498.731995	1265.189575	24750.839844	4869.614746	15.347351
499.084076	1256.087524	24982.943359	4762.665039	14.778939
499.436096	1231.056763	23988.541016	4753.562988	15.478453
499.788086	1226.505737	23685.896484	4635.235840	15.177304
500.140106	1237.883301	23103.363281	4626.133789	15.495889
500.491943	1231.056763	22491.248047	4416.785645	14.984479
500.843842	1260.638550	22500.349609	4309.836426	14.356117
501.195679	1235.607788	21735.775391	4207.437988	14.496614
501.547455	1206.026001	21428.580078	4134.621094	14.481826
501.899231	1283.393677	21314.802734	3977.610352	13.449962
502.250885	1190.097412	21396.722656	3995.814453	13.885135
502.602600	1228.781250	21139.587891	4039.049316	14.114285
502.954193	1194.648438	20973.474609	4052.702637	14.450069
503.305786	1228.781250	21130.486328	3916.171387	13.503316
503.657379	1212.852539	21123.660156	3982.161377	13.908570
504.008820	1276.567139	21389.896484	3954.855225	13.315986
504.360291	1221.954712	21594.693359	3920.722412	13.246956
504.711700	1233.332275	21694.814453	3857.007813	12.822510
505.063080	1208.301514	21781.285156	3998.090088	13.560447
505.414368	1269.740601	21435.406250	3875.211914	12.920333
505.765656	1194.648438	21301.150391	3770.538086	12.811227
506.116943	1169.617676	21351.210938	3825.150391	13.158192
506.468109	1210.577026	21337.558594	3795.568604	12.843414
506.819305	1242.434326	21187.375000	3895.691650	13.302909
507.170410	1242.434326	21155.517578	3734.129639	12.512855
507.521484	1237.883301	21219.232422	3545.261475	11.547659
507.872559	1278.842651	21373.966797	3709.098877	12.093760
508.223480	1251.536499	21260.191406	3649.935303	11.986808
508.574493	1244.709839	21697.091797	3729.578613	12.149531
508.925385	1196.923950	22113.511719	3704.547852	11.988686
509.276245	1228.781250	22090.755859	3674.966064	11.725567
509.627045	1183.270874	22559.513672	3693.170166	11.741537
509.977814	1215.128052	22600.472656	3729.578613	11.757822
510.328613	1190.097412	22757.484375	3659.037354	11.447562
510.679260	1199.199463	23014.617188	3634.006836	11.160948
511.029999	1251.536499	23526.609375	3663.588379	10.828480
511.380585	1265.189575	23458.343750	3693.170166	10.940223
511.731140	1192.372925	23424.210938	3654.486328	11.074718
512.081726	1233.332275	23965.785156	3747.782715	11.061061
512.432129	1315.250977	24143.275391	3624.904541	10.117624
512.782654	1226.505737	24102.316406	3561.189941	10.205908
513.133057	1224.230225	24307.113281	3618.078125	10.370663
513.483398	1221.954712	23981.712891	3622.629150	10.547891
513.833801	1183.270874	24307.113281	3538.434814	10.185003
514.183960	1167.342163	23760.988281	3524.781738	10.434081
514.534302	1190.097412	23724.580078	3483.822266	10.178733
514.884460	1281.118164	23811.048828	3408.730225	9.443492
515.234619	1228.781250	23453.792969	3426.934326	9.890448
515.584717	1210.577026	23474.273438	3374.597412	9.719952
515.934753	1158.240112	23328.638672	3420.107666	10.202197
516.284851	1290.220337	23355.945313	3260.821289	8.930597
516.634766	1237.883301	23799.671875	3283.576416	9.067070
516.984741	1174.168701	24238.847656	3317.709229	9.293607
517.334595	1242.434326	24837.308594	3438.312012	9.306587
517.684448	1260.638550	25847.640625	3367.770752	8.570107
518.034363	1244.709839	26798.808594	3413.281250	8.486197
518.384094	1208.301514	28100.406250	3583.945313	8.833982
518.733826	1219.679199	28753.480469	3663.588379	8.876033
519.083496	1228.781250	29606.800781	3599.874023	8.355385
519.433167	1183.270874	29709.199219	3636.282227	8.599234
519.782776	1221.954712	29913.996094	3611.251465	8.327386
520.132324	1269.740601	29586.322266	3502.026611	7.883318
520.481873	1206.026001	28940.074219	3431.485352	8.024286
520.831299	1294.771362	27906.986328	3467.893799	8.165884
521.180786	1244.709839	27112.830078	3217.586426	7.626671
521.530151	1251.536499	26903.482422	3253.994629	7.806262
521.879517	1285.669312	26334.601563	3156.147461	7.467297
522.228882	1244.709839	26427.898438	3126.565674	7.472667
522.578064	1294.771362	26198.070313	3049.197754	7.044956
522.927307	1272.016113	25938.662109	3074.228516	7.306273
523.276489	1228.781250	26025.130859	2967.279053	7.011104
523.625610	1303.873413	26389.214844	3028.718262	6.875907
523.974792	1328.904175	26837.492188	2985.483398	6.494202
524.323792	1262.914063	27101.453125	2994.585449	6.701893
524.672852	1221.954712	27763.628906	3071.953125	6.970165
525.021790	1194.648438	28833.125000	3119.739014	6.965256
525.370728	1299.322388	29977.710938	3219.861816	6.696818
525.719604	1260.638550	31652.494141	3208.484375	6.409105
526.068420	1342.557251	33436.503906	3356.393066	6.274815
526.417297	1208.301514	35222.785156	3379.148438	6.382125
526.765991	1297.046875	35812.144531	3342.739990	5.926951
527.114746	1210.577026	36704.152344	3399.628174	6.167458
527.463379	1155.964600	37471.000000	3497.475586	6.447773
527.812012	1194.648438	39951.320313	3463.342773	5.853687
528.160706	1210.577026	43264.476563	3720.476563	5.968292
528.509155	1285.669312	48015.765625	4000.365479	5.809310
528.857727	1265.189575	52737.468750	4189.233887	5.680814
529.206177	1199.199463	55773.015625	4491.877930	6.033440
529.554565	1260.638550	56462.496094	4355.346680	5.606166
529.902893	1196.923950	55342.941406	4303.009766	5.736499
530.251221	1251.536499	53037.839844	4136.896973	5.571667
530.599548	1231.056763	49765.640625	3816.048340	5.326082
530.947876	1224.230225	45637.843750	3599.874023	5.348909
531.296021	1265.189575	41912.816406	3347.291016	5.122320
531.644165	1219.679199	39041.109375	3240.341553	5.342639
531.992249	1249.260864	37530.164063	3119.739014	5.155545
532.340454	1228.781250	36483.425781	3019.616211	5.079713
532.688354	1190.097412	36956.734375	2983.207764	5.013360
533.036438	1256.087524	37571.125000	3033.269287	4.893790
533.384338	1258.363037	39669.152344	2933.146240	4.360189
533.732239	1246.985352	41514.601563	2965.003662	4.266501
534.080139	1144.586914	42859.433594	3201.657715	4.931268
534.427917	1137.760376	41603.347656	3106.085938	4.864196
534.775757	1226.505737	40201.625000	2946.799316	4.413825
535.123474	1194.648438	38244.679688	2926.319824	4.673873
535.471191	1256.087524	36428.812500	2769.308838	4.302258
535.818848	1201.474976	34788.160156	2780.686523	4.701898
536.166382	1283.393677	33909.812500	2594.093750	4.017297
536.513977	1262.914063	33718.667969	2616.848877	4.171633
536.861511	1185.546387	34191.976563	2564.511963	4.177869
537.208984	1253.812012	34292.097656	2696.492188	4.366692
537.556396	1297.046875	33857.472656	2637.328613	4.116291
537.903809	1224.230225	33086.074219	2493.970703	3.985144
538.251160	1269.740601	32189.517578	2616.848877	4.356785
538.598389	1235.607788	31019.900391	2398.398926	3.904042
538.945740	1256.087524	30071.007813	2384.745850	3.916923
539.292969	1160.515625	29766.087891	2259.592041	3.842176
539.640137	1246.985352	29474.820313	2239.112549	3.514712
539.987244	1240.158813	29672.791016	2334.684326	3.849540
540.334351	1212.852539	30328.140625	2398.398926	4.071903
540.681458	1226.505737	31845.914063	2412.052002	3.871878
541.028442	1203.750488	34333.058594	2478.042236	3.846418
541.375366	1228.781250	37848.738281	2628.226563	3.821537
541.722290	1169.617676	41000.332031	2562.236328	3.496344
542.069153	1217.403687	43325.917969	2685.114502	3.485544
542.416016	1178.719727	43712.753906	2814.819336	3.846566
542.762756	1265.189575	42518.105469	2630.501953	3.309614
543.109558	1312.975464	40963.925781	2682.839111	3.454807
543.456299	1269.740601	39225.425781	2503.072998	3.249401
543.802917	1160.515625	37935.207031	2612.297852	3.947775
544.149536	1187.821899	36151.199219	2482.593262	3.703222
544.496094	1192.372925	33750.523438	2421.154053	3.774112
544.842651	1269.740601	32203.169922	2248.214600	3.163160
545.189148	1324.353149	30630.785156	2150.367188	2.818542
545.535583	1242.434326	29820.699219	2134.438477	3.121268
545.882019	1210.577026	28949.175781	2088.927979	3.166530
546.228333	1215.128052	28211.906250	2059.346436	3.127108
546.574707	1199.199463	27859.201172	2022.937988	3.089792
546.920898	1201.474976	28211.906250	2095.754639	3.310868
547.267212	1180.995239	28573.714844	2104.856689	3.372653
547.613342	1231.056763	27904.710938	2132.163086	3.378263
547.959473	1176.444214	27656.679688	2038.866699	3.256853
548.305664	1153.689087	27171.994141	2000.182739	3.253454
548.651611	1242.434326	25813.507813	1959.223389	2.917207
548.997742	1206.026001	25262.832031	1938.743774	3.045782
549.343689	1178.719727	23729.130859	1847.722900	2.966701
549.689575	1199.199463	23246.720703	1870.478149	3.044690
550.035522	1183.270874	22370.644531	1820.416626	3.007196
550.381287	1208.301514	21599.244141	1843.171875	3.113492
550.727173	1226.505737	21398.998047	1911.437500	3.395375
551.072876	1290.220337	20659.453125	1829.518677	2.784304
551.418640	1231.056763	20716.341797	1768.079712	2.756044
551.764282	1217.403687	20227.103516	1827.243164	3.208044
552.109863	1283.393677	20636.697266	1690.711914	2.104645
552.455505	1297.046875	20677.658203	1690.711914	2.031231
552.801025	1246.985352	21344.384766	1804.488037	2.774004
553.146545	1267.465088	21355.763672	1806.763550	2.684640
553.491943	1196.923950	21428.580078	1781.732788	2.890563
553.837341	1267.465088	21571.937500	1781.732788	2.532780
554.182800	1251.536499	21273.843750	1699.814087	2.238891
554.528015	1228.781250	20893.832031	1788.559326	2.846563
554.873352	1251.536499	20643.525391	1645.201538	2.030040
555.218628	1244.709839	20445.554688	1636.099487	2.038398
555.563721	1253.812012	20092.849609	1786.283813	2.826428
555.908875	1208.301514	19371.507813	1740.773438	2.931597
556.254028	1237.883301	19351.029297	1677.058838	2.424623
556.599121	1244.709839	19316.896484	1622.446289	2.090153
556.944031	1226.505737	18870.894531	1551.905151	1.844209
557.289063	1206.026001	18898.201172	1686.160889	2.713826
557.633972	1276.567139	18704.781250	1670.232300	2.258781
557.978882	1215.128052	18579.626953	1747.599976	3.066440
558.323792	1176.444214	18552.320313	1727.120239	3.169199
558.668518	1274.291626	18381.656250	1613.344238	1.981910
559.013306	1272.016113	18038.052734	1661.130127	2.320847
559.358032	1180.995239	18097.216797	1656.579102	2.811407
559.702637	1276.567139	18131.349609	1574.660400	1.768597
560.047363	1260.638550	18115.421875	1631.548462	2.200621
560.391846	1237.883301	18299.738281	1588.313477	2.053881
560.736450	1201.474976	18058.533203	1642.926025	2.618790
561.080933	1187.821899	18140.451172	1679.334351	2.899329
561.425354	1219.679199	18156.380859	1592.864502	2.203412
561.769775	1235.607788	18195.064453	1615.619751	2.240708
562.114136	1265.189575	18600.107422	1629.272949	2.100289
562.458496	1187.821899	18479.503906	1667.956787	2.776681
562.802673	1242.434326	18534.117188	1642.926025	2.316094
563.146912	1201.474976	18347.523438	1620.170776	2.441937
563.491150	1183.270874	17899.246094	1606.517700	2.531990
563.835266	1217.403687	17983.441406	1606.517700	2.320847
564.179443	1326.628662	18170.033203	1579.211426	1.499594
564.523438	1212.852539	18201.890625	1561.007324	2.049291
564.867493	1235.607788	18222.371094	1633.823975	2.344273
565.211426	1231.056763	18454.474609	1697.538574	2.708416
565.555359	1240.158813	18993.771484	1640.650513	2.255832
565.899231	1285.669312	19102.998047	1608.793213	1.813537
566.243042	1269.740601	19667.326172	1626.997314	1.941867
566.586914	1233.332275	20106.501953	1649.752563	2.206414
566.930603	1160.515625	20638.974609	1636.099487	2.441589
567.274292	1260.638550	20529.748047	1608.793213	1.806802
567.617981	1233.332275	20252.134766	1690.711914	2.404881
567.961609	1299.322388	20397.767578	1658.854614	1.882521
568.305237	1183.270874	19594.509766	1601.966675	2.274132
568.648682	1240.158813	19933.562500	1640.650513	2.142422
568.992188	1265.189575	19082.517578	1622.446289	2.005108
569.335632	1226.505737	19073.416016	1545.078613	1.785031
569.679016	1235.607788	18725.259766	1631.548462	2.263857
570.022461	1262.914063	19105.273438	1526.874512	1.479403
570.365662	1228.781250	19027.904297	1588.313477	2.019943
570.708984	1194.648438	19184.916016	1661.130127	2.592967
571.052185	1237.883301	19114.375000	1535.976563	1.667515
571.395386	1178.719727	19332.824219	1604.242188	2.343946
571.738525	1278.842651	19913.082031	1592.864502	1.685187
572.081604	1219.679199	20215.726563	1510.945801	1.533301
572.424683	1303.873413	20145.185547	1556.456177	1.340580
572.767578	1246.985352	20814.189453	1647.477051	2.046750
573.110596	1267.465088	20488.789063	1556.456177	1.503492
573.453552	1194.648438	20302.197266	1590.588989	2.072168
573.796387	1278.842651	20283.992188	1663.405762	2.023468
574.139282	1278.842651	20222.552734	1636.099487	1.885886
574.481995	1196.923950	19767.449219	1592.864502	2.132091
574.824768	1176.444214	19728.765625	1642.926025	2.514412
575.167480	1228.781250	19815.234375	1561.007324	1.787464
575.510132	1251.536499	19555.826172	1524.598877	1.491794
575.852722	1235.607788	19869.847656	1549.629639	1.685187
576.195251	1208.301514	19560.376953	1592.864502	2.095474
576.537842	1235.607788	19417.019531	1510.945801	1.514393
576.880188	1201.474976	19164.435547	1565.558350	2.026856
577.222717	1158.240112	18618.310547	1454.057739	1.694252
577.565063	1190.097412	18272.431641	1549.629639	2.104702
577.907410	1219.679199	17908.349609	1510.945801	1.745296
578.249756	1233.332275	17419.111328	1522.323364	1.785463
578.591919	1260.638550	17080.058594	1499.568237	1.510357
578.934204	1219.679199	16841.128906	1497.292725	1.777130
579.276306	1201.474976	16558.964844	1501.843750	1.955845
579.618469	1242.434326	16244.943359	1481.364014	1.592598
579.960571	1297.046875	15826.247070	1592.864502	2.036021
580.302551	1269.740601	15801.216797	1538.252075	1.847792
580.644531	1221.954712	15691.991211	1604.242188	2.641925
580.986511	1281.118164	15348.387695	1465.435425	1.310256
581.328369	1217.403687	15389.347656	1538.252075	2.263969
581.670227	1217.403687	15102.631836	1497.292725	2.015732
582.012024	1231.056763	15157.244141	1483.639526	1.813725
582.353821	1231.056763	15107.182617	1547.354126	2.279436
582.695496	1208.301514	14972.926758	1413.098389	1.487849
583.037231	1174.168701	14629.323242	1517.772339	2.553695
583.378845	1287.944824	14911.488281	1479.088501	1.403039
583.720398	1319.802124	14815.916016	1465.435425	1.079076
584.062012	1258.363037	14793.161133	1476.812988	1.613988
584.403442	1185.546387	14977.477539	1488.190552	2.194357
584.744934	1240.158813	14617.945313	1554.180664	2.347338
585.086365	1215.128052	14627.047852	1504.119263	2.154734
585.427734	1244.709839	14476.863281	1444.955688	1.513328
585.768982	1265.189575	14397.219727	1458.608887	1.472882
586.110291	1180.995239	14349.434570	1526.874512	2.626578
586.451599	1237.883301	14235.658203	1545.078613	2.363445
586.792725	1269.740601	14513.271484	1517.772339	1.872852
587.133850	1199.199463	14215.178711	1492.741699	2.255245
587.474915	1278.842651	14331.230469	1472.261963	1.481869
587.815979	1187.821899	14333.505859	1538.252075	2.665743
588.157043	1180.995239	14536.027344	1497.292725	2.368377
588.497925	1194.648438	14704.415039	1469.986450	2.038066
588.838867	1240.158813	14526.924805	1515.496826	2.072273
589.179749	1269.740601	14745.375000	1474.537476	1.519757
589.520569	1169.617676	14966.100586	1460.884399	2.111166
589.861450	1208.301514	15218.683594	1481.364014	1.949001
590.202087	1194.648438	15129.937500	1406.271851	1.518615
590.542847	1192.372925	15143.590820	1472.261963	2.006198
590.883484	1228.781250	15111.733398	1547.354126	2.294706
591.224121	1260.638550	15088.978516	1551.905151	2.106302
591.564636	1258.363037	14982.029297	1472.261963	1.558614
591.905151	1242.434326	14945.621094	1513.221313	1.976088
592.245667	1260.638550	14615.669922	1517.772339	1.925370
592.585999	1206.026001	14647.527344	1485.915039	2.082275
592.926453	1267.465088	14476.863281	1449.506714	1.378122
593.266724	1274.291626	14485.965820	1438.129150	1.240097
593.607056	1215.128052	14768.129883	1383.516602	1.242445
593.947388	1221.954712	14495.067383	1449.506714	1.714383
594.287476	1283.393677	14727.170898	1442.680176	1.184834
594.627686	1208.301514	14795.436523	1456.333252	1.825490
594.967773	1221.954712	15052.570313	1499.568237	2.007239
595.307861	1276.567139	15405.275391	1469.986450	1.368981
595.647888	1212.852539	15077.600586	1547.354126	2.412605
595.987854	1278.842651	15760.256836	1492.741699	1.477059
596.327820	1258.363037	15521.327148	1504.119263	1.723038
596.667725	1276.567139	16058.350586	1492.741699	1.462439
597.007568	1206.026001	16597.648438	1515.496826	2.010645
597.347351	1240.158813	17246.171875	1529.150024	1.805517
597.687073	1165.066650	17633.009766	1540.527588	2.279950
598.026794	1169.617676	17428.212891	1567.833862	2.449265
598.366455	1258.363037	17225.693359	1510.945801	1.581872
598.706116	1246.985352	16659.087891	1465.435425	1.417393
599.045654	1217.403687	16433.810547	1506.394775	1.899207
599.385193	1135.484863	15521.327148	1556.456177	2.926289
599.724731	1235.607788	15032.090820	1551.905151	2.292594
600.064087	1203.750488	14451.833008	1444.955688	1.820680
600.403564	1258.363037	14035.412109	1433.578125	1.371327
600.742920	1246.985352	14249.311523	1481.364014	1.802590
601.082153	1242.434326	14092.300781	1460.884399	1.700018
601.421387	1228.781250	13903.431641	1472.261963	1.921005
601.760620	1210.577026	14033.136719	1463.159912	1.969832
602.099854	1237.883301	14115.055664	1495.017212	1.996820
602.438843	1219.679199	14101.402344	1465.435425	1.907790
602.778015	1190.097412	14105.953125	1410.822876	1.708950
603.117065	1183.270874	14510.996094	1463.159912	2.100051
603.456055	1196.923950	15002.508789	1479.088501	2.043844
603.794983	1253.812012	15191.376953	1460.884399	1.485714
604.133850	1180.995239	16033.319336	1456.333252	1.853838
604.472778	1180.995239	16367.821289	1504.119263	2.127660
604.811584	1201.474976	16850.232422	1444.955688	1.555911
605.150330	1176.444214	17264.376953	1520.047852	2.135785
605.489075	1251.536499	17717.205078	1460.884399	1.271421
605.827698	1183.270874	17455.519531	1515.496826	2.041672
606.166382	1237.883301	17282.580078	1526.874512	1.801163
606.504883	1249.260864	16568.066406	1481.364014	1.515152
606.843445	1194.648438	16251.769531	1554.180664	2.387789
607.181946	1244.709839	15805.767578	1460.884399	1.484608
607.520386	1206.026001	15211.856445	1506.394775	2.144598
607.858826	1196.923950	14754.476563	1508.670288	2.299429
608.197083	1240.158813	14683.935547	1444.955688	1.523358
608.535461	1265.189575	14390.393555	1524.598877	1.976421
608.873718	1258.363037	14490.516602	1524.598877	2.012037
609.211914	1215.128052	14654.353516	1413.098389	1.473078
609.550171	1212.852539	14966.100586	1449.506714	1.720715
609.888245	1315.250977	15398.449219	1433.578125	0.840201
610.226318	1244.709839	15892.237305	1483.639526	1.631195
610.564392	1206.026001	15616.899414	1476.812988	1.879046
610.902344	1269.740601	15712.470703	1410.822876	0.976839
611.240295	1274.291626	15393.898438	1524.598877	1.772764
611.578247	1285.669312	15184.550781	1456.333252	1.227897
611.916138	1315.250977	14997.958008	1479.088501	1.197406
612.253845	1235.607788	14447.281250	1463.159912	1.722357
612.591675	1233.332275	14224.280273	1440.404663	1.593974
612.929382	1258.363037	13848.819336	1424.476074	1.319357
613.267090	1237.883301	13393.715820	1460.884399	1.834519
613.604736	1256.087524	13425.572266	1417.649414	1.327598
613.942261	1256.087524	12940.886719	1424.476074	1.441091
614.279785	1219.679199	12954.540039	1417.649414	1.687027
614.617310	1187.821899	12660.998047	1392.618774	1.785006
614.954712	1224.230225	12492.609375	1456.333252	2.059773
615.292175	1237.883301	12472.129883	1442.680176	1.822969
615.629517	1258.363037	12672.375000	1451.782227	1.694577
615.966797	1287.944824	12451.649414	1454.057739	1.487973
616.304138	1278.842651	12551.772461	1426.751587	1.312072
616.641296	1153.689087	12285.537109	1406.271851	2.269010
616.978516	1178.719727	12292.363281	1483.639526	2.743653
617.315552	1267.465088	12192.240234	1429.027100	1.478859
617.652771	1219.679199	12267.333008	1410.822876	1.730174
617.989685	1219.679199	12510.813477	1451.782227	2.055622
618.326721	1203.750488	12494.884766	1410.822876	1.833938
618.663696	1310.699951	12638.242188	1417.649414	0.944154
619.000549	1233.332275	12331.046875	1451.782227	1.968423
619.337463	1203.750488	12647.344727	1501.843750	2.604892
619.674194	1267.465088	12258.230469	1429.027100	1.469980
620.010986	1185.546387	12155.832031	1397.169800	1.929060
620.347778	1203.750488	12333.322266	1422.200562	1.962790
620.684387	1224.230225	12133.077148	1399.445313	1.606174
621.020996	1260.638550	11912.351563	1472.261963	1.986755
621.357605	1258.363037	12167.209961	1438.129150	1.647893
621.694214	1240.158813	11921.453125	1413.098389	1.619088
622.030579	1208.301514	11882.769531	1504.119263	2.771265
622.367065	1146.862427	11898.698242	1397.169800	2.328043
622.703430	1215.128052	11898.698242	1394.894287	1.682642
623.039795	1208.301514	11839.535156	1390.343262	1.712330
623.376160	1224.230225	11682.523438	1358.485962	1.283725
623.712402	1199.199463	11536.890625	1353.934937	1.496809
624.048645	1196.923950	11666.594727	1408.547363	2.021300
624.384766	1253.812012	11693.901367	1492.741699	2.288579
624.720886	1260.638550	11885.044922	1403.996338	1.349325
625.057007	1319.802124	11987.443359	1415.373901	0.895904
625.392944	1299.322388	11871.391602	1388.067749	0.839432
625.729004	1231.056763	11807.677734	1454.057739	2.108433
626.064941	1278.842651	12030.678711	1424.476074	1.354498
626.400818	1221.954712	12187.689453	1440.404663	1.992114
626.736633	1272.016113	12351.527344	1440.404663	1.519819
627.072449	1162.791138	12845.314453	1476.812988	2.687963
627.408264	1210.577026	12954.540039	1458.608887	2.111995
627.743896	1199.199463	12758.844727	1515.496826	2.736220
628.079590	1199.199463	12956.815430	1456.333252	2.186955
628.415161	1269.740601	13015.978516	1442.680176	1.472298
628.750793	1256.087524	12460.751953	1454.057739	1.766855
629.086365	1251.536499	12437.997070	1504.119263	2.257933
629.421753	1253.812012	12326.496094	1403.996338	1.356350
629.757263	1278.842651	12164.934570	1372.139038	0.857024
630.092651	1215.128052	11784.921875	1399.445313	1.743811
630.427917	1249.260864	11602.880859	1394.894287	1.406594
630.763184	1272.016113	11361.675781	1381.241089	1.082544
631.098511	1224.230225	11643.839844	1422.200562	1.899979
631.433716	1308.424438	11336.644531	1444.955688	1.361470
631.768799	1224.230225	11122.746094	1403.996338	1.816092
632.103943	1201.474976	11077.235352	1481.364014	2.834101
632.438965	1240.158813	11131.847656	1347.108276	1.081205
632.773987	1249.260864	10638.059570	1385.792114	1.454193
633.109070	1231.056763	10774.590820	1360.761475	1.359085
633.443848	1192.372925	10997.591797	1340.281738	1.508470
633.778870	1258.363037	10876.989258	1442.680176	1.916252
634.113708	1226.505737	10867.887695	1383.516602	1.628510
634.448425	1272.016113	10876.989258	1419.924927	1.539919
634.783264	1251.536499	10997.591797	1401.720825	1.540975
635.117859	1267.465088	10888.367188	1476.812988	2.175970
635.452576	1215.128052	10929.326172	1465.435425	2.576717
635.787170	1160.515625	10583.447266	1383.516602	2.366577
636.121704	1203.750488	10567.518555	1454.057739	2.673147
636.456177	1272.016113	10494.702148	1367.588013	1.036270
636.790588	1228.781250	10544.763672	1388.067749	1.709820
637.125122	1210.577026	10041.873047	1435.853638	2.550890
637.459412	1183.270874	9973.607422	1415.373901	2.640434
637.793762	1251.536499	10244.394531	1422.200562	1.897773
638.128052	1226.505737	9916.719727	1383.516602	1.806755
638.462280	1201.474976	9684.616211	1390.343262	2.226396
638.796509	1135.484863	9766.535156	1433.578125	3.453731
639.130615	1212.852539	9677.790039	1385.792114	2.043011
639.464722	1253.812012	9809.770508	1415.373901	1.888297
639.798767	1242.434326	9498.023438	1390.343262	1.791622
640.132751	1219.679199	9666.412109	1388.067749	1.993535
640.466736	1258.363037	9589.044922	1429.027100	2.048621
640.800598	1256.087524	9393.349609	1372.139038	1.426174
641.134521	1344.832764	9256.818359	1488.190552	1.811907
641.468262	1258.363037	9345.563477	1358.485962	1.238042
641.802063	1262.914063	9313.707031	1415.373901	1.893724
642.135803	1256.087524	9102.083008	1426.751587	2.175174
642.469421	1221.954712	8942.796875	1410.822876	2.446212
642.803101	1251.536499	9020.164063	1399.445313	1.903925
643.136658	1190.097412	9054.296875	1392.618774	2.575232
643.470215	1294.771362	9113.460938	1403.996338	1.396973
643.803711	1237.883301	8920.041992	1406.271851	2.191943
644.137085	1212.852539	8929.143555	1417.649414	2.654084
644.470581	1256.087524	8899.561523	1449.506714	2.530514
644.803833	1246.985352	9011.062500	1378.965576	1.699883
645.137207	1183.270874	8974.654297	1347.108276	2.102803
645.470459	1228.781250	8940.521484	1344.832764	1.504868
645.803589	1212.852539	8954.174805	1374.414551	2.087008
646.136780	1231.056763	8931.418945	1360.761475	1.684398
646.469849	1278.842651	8872.255859	1322.077637	0.569375
646.802979	1221.954712	8974.654297	1458.608887	3.052539
647.135986	1192.372925	9049.746094	1410.822876	2.780191
647.468994	1249.260864	9038.368164	1363.036987	1.460708
647.801941	1221.954712	8942.796875	1381.241089	2.063070
648.134766	1221.954712	9124.838867	1417.649414	2.476244
648.467651	1142.311401	9045.195313	1385.792114	3.080910
648.800354	1237.883301	8749.377930	1294.771362	0.757347
649.133179	1169.617676	8972.378906	1378.965576	2.682998
649.465881	1278.842651	8908.664063	1394.894287	1.521027
649.798462	1249.260864	8931.418945	1392.618774	1.866115
650.131104	1228.781250	8778.958984	1388.067749	2.109705
650.463623	1224.230225	8856.327148	1429.027100	2.683363
650.796143	1301.597900	8815.367188	1360.761475	0.787402
651.128662	1244.709839	8872.255859	1383.516602	1.819809
651.461060	1235.607788	8906.388672	1365.312500	1.690893
651.793396	1301.597900	9029.266602	1388.067749	1.118964
652.125732	1262.914063	8951.898438	1265.189575	0.029594
652.458008	1226.505737	8890.459961	1367.588013	1.840855
652.790222	1187.821899	8879.082031	1408.547363	2.869822
653.122437	1253.812012	9097.532227	1394.894287	1.798665
653.454529	1183.270874	8740.275391	1451.782227	3.553145
653.786621	1299.322388	8826.745117	1369.863525	0.937122
654.118713	1206.026001	8580.989258	1358.485962	2.067264
654.450623	1272.016113	8815.367188	1442.680176	2.262444
654.782654	1276.567139	8505.896484	1381.241089	1.447907
655.114502	1262.914063	8624.223633	1401.720825	1.885626
655.446350	1233.332275	8583.264648	1381.241089	2.012383
655.778198	1258.363037	8665.183594	1376.690063	1.597541
656.109863	1253.812012	8603.744141	1322.077637	0.928793
656.441650	1196.923950	8478.590820	1344.832764	2.031249
656.773254	1165.066650	8433.080078	1460.884399	4.070132
657.104919	1217.403687	8469.488281	1451.782227	3.231878
657.436462	1171.893188	8492.243164	1385.792114	2.921977
657.767944	1244.709839	8437.630859	1399.445313	2.151219
658.099548	1249.260864	8571.886719	1365.312500	1.584836
658.430908	1278.842651	8669.734375	1401.720825	1.662562
658.762268	1237.883301	8933.694336	1424.476074	2.424602
659.093628	1231.056763	9147.593750	1394.894287	2.069561
659.424927	1221.954712	9300.053711	1408.547363	2.309858
659.756226	1203.750488	9875.760742	1451.782227	2.860141
660.087341	1224.230225	9807.495117	1449.506714	2.624601
660.418518	1272.016113	9953.127930	1422.200562	1.730014
660.749573	1267.465088	9932.648438	1454.057739	2.153361
661.080627	1178.719727	9702.820313	1515.496826	3.950881
661.411621	1187.821899	9791.566406	1394.894287	2.406771
661.742554	1240.158813	9529.880859	1431.302612	2.305793
662.073547	1287.944824	9108.910156	1303.873413	0.203665
662.404297	1260.638550	9013.337891	1378.965576	1.526269
662.735229	1287.944824	8967.827148	1376.690063	1.155555
663.065979	1237.883301	8692.489258	1381.241089	1.923077
663.396667	1128.658325	8530.927734	1431.302612	4.088534
663.727417	1231.056763	8410.325195	1328.904175	1.362916
664.057922	1253.812012	8239.661133	1351.659302	1.400650
664.388611	1224.230225	7982.526855	1349.383789	1.851851
664.719116	1258.363037	7966.598145	1424.476074	2.476255
665.049622	1192.372925	8260.140625	1381.241089	2.672246
665.380005	1228.781250	7889.230469	1363.036987	2.015716
665.710388	1199.199463	7732.219727	1372.139038	2.647161
666.040771	1199.199463	7766.352539	1401.720825	3.083853
666.371033	1208.301514	7748.148438	1417.649414	3.201113
666.701294	1126.382813	7773.179199	1363.036987	3.560425
667.031555	1242.434326	7841.444824	1347.108276	1.586207
667.361633	1258.363037	7673.056152	1399.445313	2.199361
667.691772	1219.679199	7836.893555	1363.036987	2.166437
668.021790	1192.372925	7909.710449	1378.965576	2.777777
668.351807	1212.852539	7848.271484	1419.924927	3.120713
668.681763	1242.434326	7677.607422	1351.659302	1.697312
669.011719	1269.740601	7818.689453	1447.231201	2.710215
669.341614	1278.842651	8062.170410	1383.516602	1.543106
669.671387	1281.118164	7789.107910	1435.853638	2.377623
670.001221	1231.056763	7900.608398	1381.241089	2.251790
670.330933	1246.985352	7830.066895	1413.098389	2.523333
670.660583	1292.495850	7866.475586	1324.353149	0.484597
670.990173	1242.434326	7698.086914	1403.996338	2.502644
671.319763	1262.914063	7711.740234	1460.884399	3.069866
671.649292	1342.557251	7399.993652	1378.965576	0.601052
671.978821	1194.648438	7629.821289	1390.343262	3.041019
672.308289	1206.026001	7522.871582	1385.792114	2.845821
672.637695	1208.301514	7561.555664	1353.934937	2.292265
672.966980	1171.893188	7418.197754	1367.588013	3.132970
673.296326	1185.546387	7434.126465	1365.312500	2.876911
673.625610	1231.056763	7374.962891	1338.006226	1.740740
673.954773	1221.954712	7345.381348	1440.404663	3.567446
674.283936	1233.332275	7252.084961	1399.445313	2.759924
674.613037	1206.026001	7258.911133	1306.148926	1.654135
674.942078	1226.505737	7356.758789	1353.934937	2.078694
675.271118	1290.220337	7327.176758	1356.210449	1.093102
675.600098	1194.648438	7199.748047	1342.557251	2.463053
675.928955	1160.515625	7181.543457	1392.618774	3.854876
676.257813	1322.077637	6967.644531	1444.955688	2.176541
676.586670	1294.771362	7140.584473	1388.067749	1.595952
676.915466	1278.842651	7181.543457	1326.628662	0.809562
677.244141	1212.852539	7108.727051	1363.036987	2.547280
677.572876	1231.056763	7161.063965	1372.139038	2.379125
677.901489	1260.638550	7186.094727	1392.618774	2.227343
678.230042	1155.964600	7172.441406	1285.669312	2.155825
678.558594	1219.679199	7165.615234	1315.250977	1.607346
678.887085	1187.821899	7174.717285	1381.241089	3.230709
679.215515	1185.546387	7372.687500	1363.036987	2.868701
679.543945	1203.750488	7374.962891	1342.557251	2.249262
679.872253	1276.567139	7283.941895	1315.250977	0.643939
680.200562	1272.016113	7545.626953	1403.996338	2.103736
680.528809	1203.750488	7714.015625	1358.485962	2.376792
680.856995	1183.270874	7793.658691	1358.485962	2.650602
681.185120	1265.189575	7766.352539	1353.934937	1.365069
681.513306	1192.372925	7836.893555	1326.628662	2.020548
681.841309	1231.056763	7845.995605	1269.740601	0.584795
682.169373	1221.954712	7843.720215	1351.659302	1.958761
682.497314	1219.679199	7716.291016	1342.557251	1.891418
682.825134	1237.883301	7711.740234	1358.485962	1.862918
683.153076	1151.413574	7586.586426	1365.312500	3.323903
683.480896	1235.607788	7481.912598	1426.751587	3.060110
683.808655	1210.577026	7511.494141	1351.659302	2.239075
684.136414	1196.923950	7331.728027	1349.383789	2.485162
684.464050	1297.046875	7256.635742	1367.588013	1.183658
684.791626	1308.424438	7217.952148	1335.730713	0.462072
685.119263	1285.669312	7106.451660	1356.210449	1.211884
685.446838	1260.638550	6976.746582	1424.476074	2.866243
685.774292	1287.944824	6851.593262	1381.241089	1.676890
686.101685	1251.536499	6781.051758	1301.597900	0.905349
686.429077	1212.852539	6703.684082	1413.098389	3.646913
686.756348	1242.434326	6655.898438	1444.955688	3.741068
687.083679	1201.474976	6703.684082	1397.169800	3.556659
687.410950	1217.403687	6692.306641	1415.373901	3.615958
687.738159	1253.812012	6888.001465	1306.148926	0.928916
688.065308	1244.709839	6867.521973	1363.036987	2.104412
688.392395	1233.332275	6931.236328	1315.250977	1.437699
688.719421	1212.852539	6728.714844	1244.709839	0.577558
689.046448	1242.434326	6710.510742	1374.414551	2.413650
689.373413	1246.985352	6847.041992	1342.557251	1.706624
689.700317	1237.883301	6749.194824	1306.148926	1.238646
690.027100	1180.995239	6737.816895	1310.699951	2.334153
690.353943	1224.230225	6742.368164	1385.792114	2.927834
690.680725	1297.046875	6512.540527	1319.802124	0.436301
691.007446	1299.322388	6248.580078	1356.210449	1.149426
691.334106	1174.168701	6316.845703	1299.322388	2.433629
691.660645	1251.536499	6382.835938	1315.250977	1.241683
691.987244	1187.821899	6121.150879	1328.904175	2.859778
692.313721	1190.097412	6187.141113	1303.873413	2.276866
692.640259	1251.536499	6153.008301	1294.771362	0.882079
692.966675	1162.791138	6171.212402	1358.485962	3.907315
693.293030	1153.689087	6087.018066	1319.802124	3.367159
693.619324	1210.577026	5907.251953	1383.516602	3.682171
693.945618	1169.617676	6123.426270	1372.139038	4.088195
694.271851	1242.434326	5886.772461	1324.353149	1.763843
694.598083	1272.016113	5911.803223	1262.914063	-0.196174
694.924194	1240.158813	5838.986328	1306.148926	1.434933
695.250244	1228.781250	5955.038086	1349.383789	2.551756
695.576294	1192.372925	5829.884277	1342.557251	3.238468
695.902283	1160.515625	5955.038086	1340.281738	3.749406
696.228210	1235.607788	5829.884277	1338.006226	2.228826
696.554138	1258.363037	5916.354004	1360.761475	2.198339
696.879944	1233.332275	6027.854492	1369.863525	2.847651
697.205750	1228.781250	6057.436523	1358.485962	2.686146
697.531433	1208.301514	6264.508789	1317.526489	2.160216
697.857178	1190.097412	6218.998535	1363.036987	3.438914
698.182739	1294.771362	6444.274902	1385.792114	1.767564
698.508423	1212.852539	6603.561523	1358.485962	2.701563
698.833984	1269.740601	6831.113281	1369.863525	1.800328
699.159485	1187.821899	7024.532715	1358.485962	2.923977
699.484924	1326.628662	7459.157227	1465.435425	2.263451
699.810303	1212.852539	7404.544922	1381.241089	2.719589
700.135681	1262.914063	7365.860840	1376.690063	1.864280
700.460999	1251.536499	7634.372070	1385.792114	2.103385
700.786255	1269.740601	7352.207520	1331.179688	1.010101
701.111450	1180.995239	7161.063965	1363.036987	3.044141
701.436646	1244.709839	6837.939941	1333.455200	1.586657
701.761719	1251.536499	6592.183594	1331.179688	1.491265
702.086792	1262.914063	6457.928223	1351.659302	1.708277
702.411865	1244.709839	6282.712891	1333.455200	1.761519
702.736816	1221.954712	6059.711914	1356.210449	2.775165
703.061646	1224.230225	5882.221191	1358.485962	2.882267
703.386536	1281.118164	5779.822754	1292.495850	0.252910
703.711365	1194.648438	5618.260742	1351.659302	3.549381
704.036194	1194.648438	5761.618652	1324.353149	2.840060
704.360901	1251.536499	5445.321289	1294.771362	1.030927
704.685547	1190.097412	5411.188477	1274.291626	1.994608
705.010132	1217.403687	5256.453125	1276.567139	1.464787
705.334717	1235.607788	5377.055664	1326.628662	2.197803
705.659302	1237.883301	5290.585938	1385.792114	3.649634
705.983765	1201.474976	5240.524414	1367.588013	4.112677
706.308228	1251.536499	5167.707520	1353.934937	2.614759
706.632568	1283.393677	5308.790039	1315.250977	0.791408
706.956909	1249.260864	5092.615723	1338.006226	2.309060
707.281189	1174.168701	5206.391602	1274.291626	2.483070
707.605408	1203.750488	5049.380859	1340.281738	3.550296
707.929626	1246.985352	5283.759277	1287.944824	1.014659
708.253784	1199.199463	5165.432129	1308.424438	2.753872
708.577820	1183.270874	5224.595703	1356.210449	4.279279
708.901855	1276.567139	5154.054688	1299.322388	0.586856
709.225830	1201.474976	5131.299316	1347.108276	3.705848
709.549805	1203.750488	5415.739746	1378.965576	4.159913
709.873718	1317.526489	5172.258789	1378.965576	1.593861
710.197510	1249.260864	5276.932617	1333.455200	2.090397
710.521362	1219.679199	5331.545410	1317.526489	2.379632
710.845093	1192.372925	5235.973145	1347.108276	3.826673
711.168701	1167.342163	5288.310547	1312.975464	3.533958
711.492432	1217.403687	5515.862305	1353.934937	3.176284
711.816040	1212.852539	5595.505859	1326.628662	2.596056
712.139587	1228.781250	5615.985352	1399.445313	3.890042
712.463074	1219.679199	5631.914063	1306.148926	1.959772
712.786499	1267.465088	5636.464844	1342.557251	1.718749
713.109924	1274.291626	5484.005371	1365.312500	2.162163
713.433350	1219.679199	5499.933594	1374.414551	3.615097
713.756592	1219.679199	5481.729492	1294.771362	1.761879
714.079834	1253.812012	5429.392578	1376.690063	2.942778
714.403015	1237.883301	5222.320313	1426.751587	4.740150
714.726196	1253.812012	5315.616699	1349.383789	2.352939
715.049255	1278.842651	5390.708984	1326.628662	1.162149
715.372375	1176.444214	5220.044922	1283.393677	2.644907
715.695435	1308.424438	5092.615723	1413.098389	2.766085
716.018311	1269.740601	5169.983398	1290.220337	0.525089
716.341248	1196.923950	5208.666992	1406.271851	5.218378
716.664063	1269.740601	5235.973145	1367.588013	2.467011
716.987000	1237.883301	5436.219238	1363.036987	2.981031
717.309692	1237.883301	5117.646484	1365.312500	3.284458
717.632385	1251.536499	5245.075684	1306.148926	1.367519
717.955078	1269.740601	4903.747559	1326.628662	1.565436
718.277649	1285.669312	4928.777832	1367.588013	2.248594
718.600220	1240.158813	5047.104980	1308.424438	1.793186
718.922791	1224.230225	4953.808594	1297.046875	1.952410
719.245300	1201.474976	4858.236816	1322.077637	3.298073
719.567688	1203.750488	4769.491699	1297.046875	2.616465
719.890015	1235.607788	4774.042480	1231.056763	-0.128617
720.212341	1167.342163	4544.214844	1301.597900	3.975742
720.534607	1206.026001	4582.898926	1333.455200	3.773586
720.856873	1251.536499	4553.316895	1344.832764	2.825635
721.179016	1187.821899	4482.775879	1297.046875	3.314916
721.501160	1262.914063	4462.296387	1385.792114	3.840680
721.823242	1242.434326	4441.816406	1267.465088	0.782362
722.145264	1199.199463	4403.132813	1326.628662	3.977274
722.467224	1253.812012	4394.030762	1281.118164	0.869562
722.789185	1228.781250	4337.142578	1285.669312	1.830162
723.111023	1249.260864	4389.479492	1301.597900	1.666669
723.432861	1253.812012	4405.408203	1297.046875	1.371840
723.754578	1192.372925	4318.938477	1358.485962	5.312956
724.076294	1226.505737	4166.478516	1383.516602	5.340555
724.397949	1210.577026	4227.917480	1358.485962	4.901964
724.719666	1215.128052	4264.326172	1433.578125	7.164181
725.041260	1253.812012	4223.366699	1363.036987	3.678160
725.362732	1208.301514	4284.805664	1324.353149	3.772192
725.684265	1283.393677	4437.265625	1338.006226	1.731603
726.005676	1301.597900	4250.672852	1315.250977	0.462961
726.327087	1281.118164	4248.397461	1385.792114	3.527607
726.648438	1215.128052	4298.458984	1324.353149	3.542438
726.969666	1260.638550	4296.183105	1356.210449	3.148427
727.290894	1208.301514	4248.397461	1378.965576	5.613772
727.612061	1351.659302	4300.734375	1303.873413	-1.620369
727.933228	1249.260864	4416.785645	1365.312500	3.663795
728.254395	1151.413574	4400.857422	1342.557251	5.882350
728.575378	1235.607788	4430.438965	1249.260864	0.427349
728.896301	1253.812012	4425.888184	1390.343262	4.304161
729.217285	1221.954712	4475.949219	1365.312500	4.405594
729.538147	1183.270874	4507.806641	1344.832764	4.859683
729.858948	1219.679199	4485.051270	1276.567139	1.742158
730.179810	1146.862427	4637.511230	1326.628662	5.149938
730.500549	1196.923950	4391.755371	1397.169800	6.267806
730.821228	1217.403687	4434.990234	1383.516602	5.162656
731.141846	1256.087524	4548.766113	1388.067749	4.008294
731.462402	1246.985352	4521.459961	1360.761475	3.474638
731.782898	1219.679199	4630.685059	1347.108276	3.735821
732.103455	1231.056763	4698.950684	1274.291626	1.246718
732.423889	1167.342163	4462.296387	1344.832764	5.386740
732.744263	1203.750488	4510.082031	1358.485962	4.679975
733.064636	1242.434326	4580.623535	1353.934937	3.340153
733.384888	1251.536499	4596.552246	1292.495850	1.224489
733.705200	1180.995239	4578.347656	1312.975464	3.884796
734.025330	1242.434326	4637.511230	1338.006226	2.815014
734.345520	1187.821899	4496.429199	1335.730713	4.470425
734.665527	1269.740601	4587.449707	1335.730713	1.989027
734.985596	1287.944824	4482.775879	1333.455200	1.424500
735.305542	1251.536499	4507.806641	1324.353149	2.236198
735.625549	1265.189575	4432.714355	1383.516602	3.735631
735.945435	1155.964600	4348.520020	1317.526489	5.060582
736.265259	1240.158813	4259.774902	1372.139038	4.370761
736.585083	1194.648438	4177.855957	1306.148926	3.737604
736.904785	1235.607788	4298.458984	1351.659302	3.789003
737.224426	1274.291626	4189.233887	1383.516602	3.747072
737.544128	1233.332275	4036.773926	1324.353149	3.246755
737.863708	1217.403687	4107.314941	1406.271851	6.535431
738.183289	1267.465088	4239.295410	1372.139038	3.522205
738.502808	1228.781250	4273.428223	1349.383789	3.961134
738.822205	1226.505737	4221.091309	1328.904175	3.419453
739.141541	1149.138062	4216.540039	1351.659302	6.602371
739.460938	1231.056763	4184.682617	1403.996338	5.855162
739.780212	1297.046875	4230.193359	1372.139038	2.560123
740.099426	1251.536499	4248.397461	1351.659302	3.340923
740.418640	1162.791138	4307.561035	1306.148926	4.558609
740.737793	1178.719727	4173.305176	1394.894287	7.218848
741.056885	1212.852539	4255.224121	1303.873413	2.991774
741.375977	1258.363037	4207.437988	1438.129150	6.095678
741.694946	1244.709839	4114.141602	1342.557251	3.409993
742.013855	1183.270874	4059.529053	1322.077637	4.825949
742.332703	1242.434326	4002.641113	1465.435425	8.079144
742.651550	1208.301514	3952.579590	1312.975464	3.814262
742.970398	1269.740601	4016.294189	1388.067749	4.308205
743.289124	1185.546387	4041.324951	1401.720825	7.569720
743.607788	1219.679199	3886.589600	1399.445313	6.740613
743.926453	1233.332275	3925.273438	1360.761475	4.733729
744.245056	1199.199463	3982.161377	1451.782227	9.076041
744.563599	1258.363037	3954.855225	1388.067749	4.810127
744.882141	1244.709839	3911.620361	1374.414551	4.863482
745.200500	1246.985352	3829.701416	1372.139038	4.845817
745.518860	1310.699951	3765.986816	1347.108276	1.482854
745.837219	1253.812012	3674.966064	1431.302612	7.330826
746.155518	1237.883301	3791.017578	1397.169800	6.238861
746.473755	1226.505737	3775.089111	1353.934937	5.000001
746.791992	1283.393677	3622.629150	1399.445313	4.961093
747.110107	1233.332275	3718.200928	1451.782227	8.791207
747.428162	1306.148926	3788.742188	1376.690063	2.841429
747.746216	1180.995239	3768.262451	1394.894287	8.267374
748.064148	1274.291626	3665.864014	1360.761475	3.615607
748.382080	1212.852539	3686.343750	1469.986450	10.395586
748.700073	1206.026001	3754.609375	1426.751587	8.660716
749.017822	1215.128052	3809.221924	1287.944824	2.807022
749.335632	1196.923950	3713.649902	1338.006226	5.605786
749.653320	1242.434326	3791.017578	1510.945801	10.535715
749.971008	1137.760376	3841.079102	1435.853638	11.026937
750.288696	1208.301514	3800.119629	1456.333252	9.569798
750.606262	1274.291626	3756.884766	1390.343262	4.674613
750.923828	1206.026001	3779.640137	1440.404663	9.106985
751.241272	1185.546387	3738.680664	1456.333252	10.606056
751.558716	1137.760376	3608.976074	1417.649414	11.325965
751.876038	1272.016113	3654.486328	1474.537476	8.500478
752.193481	1258.363037	3672.690674	1444.955688	7.728556
752.510681	1265.189575	3668.139648	1492.741699	9.469698
752.827942	1174.168701	3677.241699	1483.639526	12.363636
753.145081	1233.332275	3690.894775	1520.047852	11.666665
753.462219	1269.740601	3636.282227	1458.608887	7.980772
753.779297	1267.465088	3593.047363	1465.435425	8.512721
754.096375	1258.363037	3697.721191	1488.190552	9.421638
754.413330	1235.607788	3563.465576	1433.578125	8.504399
754.730286	1226.505737	3581.669678	1508.670288	11.980675
755.047119	1219.679199	3636.282227	1440.404663	9.133708
755.363892	1237.883301	3490.648926	1372.139038	5.959596
755.680725	1244.709839	3563.465576	1508.670288	11.383710
755.997498	1251.536499	3565.741211	1540.527588	12.487707
756.314148	1192.372925	3502.026611	1483.639526	12.610834
756.630737	1265.189575	3643.108887	1419.924927	6.507174
756.947327	1260.638550	3486.097900	1460.884399	8.997955
757.263855	1237.883301	3513.404053	1444.955688	9.100000
757.580261	1226.505737	3529.332764	1561.007324	14.525692
757.896729	1190.097412	3513.404053	1529.150024	14.593537
758.213074	1221.954712	3520.230713	1517.772339	12.871284
758.529419	1206.026001	3545.261475	1549.629639	14.688716
758.845642	1281.118164	3631.731201	1615.619751	14.230398
759.161865	1242.434326	3595.322754	1601.966675	15.280467
759.478149	1251.536499	3634.006836	1510.945801	10.888249
759.794189	1292.495850	3647.659912	1567.833862	11.690821
760.110229	1246.985352	3624.904541	1631.548462	16.172253
760.426270	1226.505737	3845.630127	1667.956787	16.854908
760.742249	1219.679199	3704.547852	1626.997314	16.391937
761.058105	1256.087524	3665.864014	1636.099487	15.769594
761.374023	1212.852539	3593.047363	1711.191650	20.936905
761.689819	1276.567139	3763.711426	1724.844727	18.023787
762.005554	1278.842651	3768.262451	1697.538574	16.819016
762.321289	1246.985352	3647.659912	1645.201538	16.587679
762.636902	1233.332275	3754.609375	1615.619751	15.162454
762.952515	1228.781250	3791.017578	1677.058838	17.495560
763.268127	1303.873413	3704.547852	1722.569214	17.440758
763.583618	1267.465088	4016.294189	1756.702026	17.798012
763.899048	1274.291626	4223.366699	1822.692139	18.595678
764.214478	1253.812012	4721.705566	1881.855713	18.110235
764.529785	1242.434326	4969.737305	1941.019287	18.742371
764.845093	1292.495850	5210.942871	1991.080688	17.828104
765.160400	1244.709839	5158.605469	2057.070801	20.755816
765.475586	1269.740601	4944.706543	1993.356201	19.690403
765.790771	1160.515625	4967.461914	1997.907227	21.996412
766.105835	1224.230225	4664.817871	1950.121338	21.097881
766.420837	1240.158813	4446.367676	1968.325439	22.711140
766.735840	1256.087524	4403.132813	1875.029175	19.667389
767.050842	1203.750488	4300.734375	1911.437500	22.850845
767.365662	1171.893188	4020.845215	1774.906250	21.166136
767.680542	1221.954712	3950.304199	1859.100464	23.352791
767.995300	1240.158813	3884.313965	1840.896362	22.719450
768.309998	1180.995239	3818.323975	1870.478149	26.143230
768.624817	1199.199463	3788.742188	1799.937012	23.198595
768.939392	1237.883301	3718.200928	1799.937012	22.660553
769.254028	1256.087524	3709.098877	1799.937012	22.170689
769.568481	1240.158813	3574.843262	1822.692139	24.951265
769.882935	1219.679199	3661.312988	1847.722900	25.722273
770.197388	1203.750488	3502.026611	1758.977539	24.158413
770.511841	1242.434326	3490.648926	1847.722900	26.923079
770.826172	1199.199463	3449.689453	1868.202637	29.727001
771.140442	1228.781250	3422.383301	1786.283813	25.414936
771.454651	1249.260864	3356.393066	1768.079712	24.622034
771.768860	1158.240112	3422.383301	1763.528564	26.733665
772.082886	1235.607788	3376.872803	1840.896362	28.267801
772.397034	1221.954712	3360.944336	1793.110352	26.702122
772.711060	1219.679199	3345.015625	1811.314575	27.837257
773.025024	1272.016113	3222.137451	1815.865601	27.887981
773.338928	1201.474976	3256.270264	1770.355225	27.685493
773.652771	1194.648438	3285.852051	1811.314575	29.488575
773.966614	1251.536499	3269.923340	1829.518677	28.635847
774.280457	1233.332275	3222.137451	1822.692139	29.633865
774.594116	1231.056763	3185.729004	1790.834839	28.637951
774.907776	1231.056763	3213.035400	1809.039063	29.161884
775.221375	1267.465088	3149.320801	1745.324463	25.392986
775.534912	1208.301514	3117.463379	1743.048950	28.009539
775.848450	1215.128052	3190.280273	1708.916138	25.000002
776.161926	1174.168701	3122.014648	1765.804199	30.373835
776.475342	1251.536499	3026.442627	1788.559326	30.256407
776.788696	1258.363037	3167.524902	1815.865601	29.201429
777.101990	1240.158813	3085.606201	1847.722900	32.922321
777.415283	1178.719727	3081.055176	1802.212524	32.775124
777.728516	1237.883301	3076.504150	1745.324463	27.599010
778.041626	1201.474976	2978.656738	1793.110352	33.290649
778.354736	1174.168701	3151.596191	1795.385864	31.415421
778.667725	1262.914063	3046.922363	1761.253052	27.933670
778.980774	1212.852539	3081.055176	1756.702026	29.110840
779.293640	1176.444214	3053.749023	1765.804199	31.393942
779.606567	1206.026001	2965.003662	1809.039063	34.282021
779.919434	1231.056763	3012.789551	1822.692139	33.205616
780.232239	1242.434326	3060.575439	1852.273926	33.541927
780.544983	1221.954712	2903.564453	1802.212524	34.506092
780.857666	1267.465088	2980.932129	1802.212524	31.208504
781.170227	1285.669312	3090.157227	1877.304688	32.786884
781.482849	1258.363037	2876.258301	1774.906250	31.926863
781.795410	1299.322388	3019.616211	1718.018188	24.338621
782.107910	1265.189575	2976.381104	1820.416626	32.446808
782.420288	1278.842651	2901.289063	1849.998413	35.203365
782.732666	1210.577026	2937.697266	1727.120239	29.907774
783.044983	1262.914063	2949.074951	1645.201538	22.672064
783.357300	1249.260864	2889.911377	1752.151001	30.651875
783.669495	1278.842651	2821.645752	1713.467163	28.171095
783.981689	1249.260864	2792.063965	1752.151001	32.595871
784.293762	1265.189575	2910.391113	1736.222412	28.630707
784.605835	1249.260864	2858.054199	1727.120239	29.702969
784.917908	1242.434326	2864.880615	1765.804199	32.258072
785.229858	1174.168701	2899.013428	1695.262939	30.211081
785.541748	1253.812012	2785.237549	1724.844727	30.757793
785.853577	1242.434326	2807.992676	1704.365112	29.505817
786.165405	1256.087524	2785.237549	1849.998413	38.839283
786.477173	1267.465088	2755.655762	1824.967651	37.461769
786.788879	1246.985352	2703.318604	1758.977539	35.156254
787.100525	1217.403687	2764.757813	1720.293701	32.499996
787.412109	1162.791138	2710.145264	1749.875488	37.941177
787.723694	1176.444214	2705.594238	1681.609863	33.035717
788.035156	1256.087524	2757.931152	1758.977539	33.484844
788.346558	1237.883301	2621.399902	1743.048950	36.513161
788.658081	1244.709839	2848.952148	1761.253052	32.198578
788.969360	1217.403687	2958.177002	1774.906250	32.026142
789.280640	1206.026001	2955.901611	1793.110352	33.550060
789.591919	1278.842651	2967.279053	1752.151001	28.032347
789.903076	1219.679199	2939.972900	1877.304688	38.227512
790.214172	1240.158813	3081.055176	1799.937012	30.407915
790.525269	1221.954712	2996.860840	1827.243164	34.102562
790.836365	1215.128052	2780.686523	1806.763550	37.790699
791.147339	1249.260864	2901.289063	1736.222412	29.476587
791.458191	1217.403687	2730.625000	1777.181763	36.992477
791.769104	1153.689087	2682.839111	1713.467163	36.607140
792.079895	1185.546387	2723.798340	1699.814087	33.431953
792.390686	1185.546387	2705.594238	1731.671387	35.928146
792.701416	1244.709839	2625.950928	1722.569214	34.596378
793.012085	1274.291626	2648.706299	1722.569214	32.615891
793.322693	1217.403687	2751.104736	1720.293701	32.789310
793.633240	1287.944824	2678.288086	1679.334351	28.150568
793.943787	1203.750488	2578.165039	1645.201538	32.119205
794.254272	1265.189575	2662.359375	1704.365112	31.433226
794.564636	1276.567139	2637.328613	1608.793213	24.414719
794.875000	1267.465088	2662.359375	1679.334351	29.526917
795.185303	1308.424438	2623.675537	1688.436401	28.892731
795.495544	1240.158813	2644.155273	1715.742676	33.873581
795.805786	1176.444214	2607.746826	1674.783325	34.817173
796.115906	1251.536499	2587.267090	1770.355225	38.841568
796.426025	1285.669312	2575.889648	1647.477051	28.042322
796.736023	1249.260864	2730.625000	1620.170776	25.038403
797.045959	1285.669312	2689.665527	1631.548462	24.635334
797.355896	1224.230225	2873.982666	1706.640625	29.241381
797.665833	1167.342163	2701.043213	1793.110352	40.801186
797.975708	1208.301514	2730.625000	1736.222412	34.678627
798.285461	1231.056763	2757.931152	1706.640625	31.147543
798.595154	1176.444214	2628.226563	1795.385864	42.633224
798.904846	1235.607788	2650.981689	1697.538574	32.636662
799.214478	1269.740601	2635.052979	1722.569214	33.166668
799.524109	1276.567139	2644.155273	1674.783325	29.118137
799.833557	1215.128052	2635.052979	1674.783325	32.371799
800.143005	1242.434326	2623.675537	1708.916138	33.772655
800.452393	1185.546387	2598.644775	1679.334351	34.943638
800.761780	1276.567139	2534.930176	1674.783325	31.645573
801.071106	1274.291626	2534.930176	1663.405762	30.866432
801.380371	1187.821899	2498.521729	1626.997314	33.506939
801.689575	1224.230225	2480.317627	1686.160889	36.775360
801.998718	1192.372925	2466.664551	1626.997314	34.107136
802.307800	1242.434326	2423.429688	1665.681274	35.838154
802.616882	1190.097412	2475.766602	1624.721802	33.805305
802.925903	1269.740601	2437.082764	1736.222412	39.961018
803.234863	1206.026001	2382.470215	1670.232300	39.458420
803.543701	1253.812012	2371.092773	1608.793213	31.771889
803.852539	1174.168701	2507.624023	1677.058838	37.713310
804.161316	1226.505737	2437.082764	1652.028076	35.150372
804.470032	1199.199463	2416.603027	1713.467163	42.242992
804.778809	1262.914063	2505.348389	1640.650513	30.402931
805.087341	1231.056763	2389.296875	1720.293701	42.239681
805.395935	1217.403687	2519.001465	1617.895264	30.769228
805.704468	1242.434326	2480.317627	1702.089600	37.132359
806.012939	1240.158813	2434.807373	1624.721802	32.190472
806.321350	1231.056763	2453.011475	1649.752563	34.264427
806.629761	1185.546387	2464.388916	1683.885376	38.967972
806.938049	1269.740601	2446.184814	1699.814087	36.557064
807.246277	1246.985352	2525.828125	1704.365112	35.765129
807.554504	1208.301514	2446.184814	1722.569214	41.544117
807.862671	1212.852539	2475.766602	1636.099487	33.513519
808.170715	1174.168701	2493.970703	1649.752563	36.034485
808.478821	1310.699951	2478.042236	1672.507813	30.994154
808.786804	1269.740601	2441.633789	1638.375000	31.456314
809.094727	1203.750488	2512.175049	1642.926025	33.565216
809.402649	1301.597900	2405.225586	1597.415649	26.804125
809.710510	1240.158813	2407.500977	1563.282837	27.680319
810.018311	1269.740601	2464.388916	1617.895264	29.142859
810.326050	1219.679199	2439.358398	1649.752563	35.261189
810.633667	1256.087524	2352.888428	1661.130127	36.929455
810.941345	1253.812012	2305.102539	1599.691162	32.900433
811.248901	1192.372925	2257.316650	1595.140137	37.820515
811.556396	1228.781250	2400.674561	1526.874512	25.436893
811.863892	1269.740601	2311.929199	1563.282837	28.165941
812.171326	1281.118164	2327.857666	1561.007324	26.739141
812.478699	1269.740601	2273.245361	1572.384888	30.158730
812.786011	1290.220337	2164.020264	1620.170776	37.760410
813.093262	1224.230225	2307.378174	1583.762451	33.193272
813.400391	1267.465088	2266.418701	1633.823975	36.674263
813.707642	1258.363037	2311.929199	1620.170776	34.341244
814.014709	1278.842651	2332.408936	1597.415649	30.237585
814.321716	1215.128052	2270.969727	1599.691162	36.422421
814.628723	1203.750488	2277.796387	1629.272949	39.618649
814.935669	1283.393677	2243.663574	1556.456177	28.436016
815.242554	1219.679199	2275.520752	1597.415649	35.775864
815.549438	1221.954712	2245.938965	1576.935913	34.666664
815.856201	1174.168701	2293.724854	1608.793213	38.821144
816.162964	1226.505737	2289.173828	1547.354126	30.192719
816.469604	1151.413574	2327.857666	1570.109375	35.589943
816.776184	1292.495850	2300.551514	1601.966675	30.699776
817.082825	1246.985352	2248.214600	1606.517700	35.909092
817.389343	1267.465088	2305.102539	1652.028076	37.061401
817.695801	1201.474976	2255.041016	1574.660400	35.421169
818.002197	1237.883301	2350.613037	1554.180664	28.425354
818.308533	1244.709839	2336.959961	1638.375000	36.041668
818.614868	1285.669312	2293.724854	1579.211426	29.119637
818.921143	1231.056763	2305.102539	1558.731689	30.508469
819.227356	1212.852539	2478.042236	1642.926025	33.992805
819.533447	1256.087524	2368.817139	1556.456177	26.993858
819.839539	1217.403687	2407.500977	1581.486938	30.592730
820.145569	1244.709839	2519.001465	1622.446289	29.642857
820.451538	1292.495850	2607.746826	1736.222412	33.737026
820.757568	1256.087524	2746.553711	1763.528564	34.045792
821.063416	1199.199463	2792.063965	1747.599976	34.428574
821.369263	1203.750488	2858.054199	1749.875488	33.012379
821.675049	1162.791138	2962.728027	1829.518677	37.041718
821.980713	1244.709839	3153.871826	1852.273926	31.823601
822.286438	1217.403687	3345.015625	1984.254150	36.042782
822.592102	1267.465088	3927.548828	2307.378174	39.093246
822.897583	1256.087524	5604.607910	2648.706299	32.025116
823.203125	1224.230225	7934.741211	3486.097900	33.706341
823.508545	1231.056763	10055.526367	4196.060547	33.599796
823.813965	1269.740601	11131.847656	4578.347656	33.548679
824.119263	1224.230225	10251.221680	4175.580566	32.694729
824.424622	1187.821899	8888.184570	3834.252441	34.367611
824.729858	1262.914063	7525.147461	3383.699463	33.866280
825.035095	1215.128052	6253.131348	2967.279053	34.778679
825.340149	1253.812012	5891.323242	2625.950928	29.587830
825.645264	1333.455200	5267.830566	2607.746826	32.388664
825.950256	1192.372925	4789.971191	2418.878662	34.092350
826.255310	1240.158813	4378.102051	2273.245361	32.922409
826.560242	1194.648438	4200.611328	2182.224365	32.853897
826.865112	1210.577026	4041.324951	2191.326416	34.646297
827.169922	1228.781250	3913.895752	2168.571289	35.000000
827.474670	1158.240112	3877.487549	2107.132324	34.895397
827.779419	1228.781250	4330.315918	2236.836914	32.501835
828.084045	1246.985352	4821.828613	2432.531738	33.163589
828.388672	1244.709839	5313.341309	2580.440674	32.829979
828.693176	1262.914063	5461.250000	2757.931152	35.609753
828.997681	1162.791138	5022.074219	2482.593262	34.198116
829.302124	1244.709839	4434.990234	2270.969727	32.168331
829.606567	1233.332275	3816.048340	2129.887451	34.713657
829.910828	1185.546387	3634.006836	2063.897461	35.873608
830.215149	1276.567139	3272.198975	2038.866699	38.198406
830.519348	1176.444214	3201.657715	1890.957764	35.280899
830.823547	1149.138062	2992.309814	1927.366089	42.222221
831.127686	1192.372925	2878.533936	1738.497925	32.388664
831.431763	1203.750488	2721.522949	1692.987427	32.233879
831.735779	1240.158813	2509.899414	1674.783325	34.229393
832.039734	1201.474976	2555.409912	1647.477051	32.941174
832.343628	1292.495850	2493.970703	1647.477051	29.545454
832.647461	1292.495850	2457.562500	1597.415649	26.171877
832.951233	1249.260864	2402.949951	1608.793213	31.163712
833.255127	1219.679199	2523.552490	1561.007324	26.178013
833.558777	1242.434326	2498.521729	1677.058838	34.601456
833.862366	1260.638550	2500.797363	1670.232300	33.027523
834.165955	1226.505737	2807.992676	1765.804199	34.100723
834.469482	1240.158813	3115.187988	1909.161987	35.679615
834.773010	1194.648438	3586.220703	2052.519775	35.870602
835.076416	1287.944824	3759.160400	2034.315552	30.202574
835.379822	1258.363037	3775.089111	2107.132324	33.725136
835.683105	1274.291626	3695.445801	2027.489014	31.109020
835.986389	1228.781250	3376.872803	1888.682251	30.720339
836.289612	1208.301514	3067.402100	1961.498901	40.514072
836.592773	1278.842651	2846.676514	1820.416626	34.542816
836.895874	1285.669312	2721.522949	1731.671387	31.061806
837.198914	1319.802124	2632.777588	1713.467163	29.982666
837.501892	1281.118164	2598.644775	1706.640625	32.297070
837.804871	1196.923950	2514.450439	1777.181763	44.041454
838.107666	1192.372925	2482.593262	1622.446289	33.333328
838.410583	1221.954712	2332.408936	1547.354126	29.303272
838.713379	1201.474976	2248.214600	1572.384888	35.434784
839.016052	1215.128052	2189.051025	1606.517700	40.186920
839.318787	1196.923950	2138.989502	1547.354126	37.198067
839.621338	1228.781250	2059.346436	1474.537476	29.589035
839.923889	1265.189575	2111.683350	1497.292725	27.419357
840.226440	1258.363037	2013.835938	1572.384888	41.566261
840.528931	1201.474976	2100.305664	1586.037964	42.784809
840.831299	1231.056763	2252.765625	1540.527588	30.289532
841.133606	1240.158813	2261.867676	1501.843750	25.612476
841.435913	1242.434326	2286.898438	1561.007324	30.501095
841.738220	1242.434326	2348.337402	1501.843750	23.456795
842.040405	1246.985352	2214.081787	1588.313477	35.294113
842.342529	1196.923950	2186.775391	1474.537476	28.045979
842.644592	1269.740601	2054.795166	1520.047852	31.884058
842.946594	1187.821899	2084.376953	1520.047852	37.055836
843.248596	1224.230225	2079.825928	1501.843750	32.446812
843.550598	1180.995239	1911.437500	1460.884399	38.317768
843.852478	1203.750488	2045.693237	1485.915039	33.513508
844.154236	1276.567139	1954.672363	1392.618774	17.114105
844.455994	1208.301514	1875.029175	1442.680176	35.153584
844.757690	1167.342163	1847.722900	1458.608887	42.809372
845.059326	1224.230225	1893.233276	1392.618774	25.170073
845.360962	1242.434326	1845.447388	1410.822876	27.924528
845.662476	1276.567139	1802.212524	1390.343262	21.645035
845.963989	1231.056763	1813.590088	1399.445313	28.906252
846.265381	1237.883301	1793.110352	1429.027100	34.426239
846.566772	1146.862427	1790.834839	1456.333252	48.056534
846.868042	1299.322388	1790.834839	1431.302612	26.851858
847.169373	1228.781250	1765.804199	1438.129150	38.983044
847.470581	1249.260864	1786.283813	1365.312500	21.610182
847.771729	1231.056763	1777.181763	1358.485962	23.333340
848.072815	1281.118164	1695.262939	1399.445313	28.571445
848.373901	1233.332275	1770.355225	1378.965576	27.118637
848.674866	1274.291626	1740.773438	1394.894287	25.853668
848.975891	1269.740601	1720.293701	1424.476074	34.343449
849.276794	1267.465088	1749.875488	1340.281738	15.094337
849.577637	1233.332275	1763.528564	1481.364014	46.781116
849.878357	1297.046875	1697.538574	1363.036987	16.477274
850.179077	1187.821899	1679.334351	1449.506714	53.240730
850.479736	1226.505737	1667.956787	1287.944824	13.917531
850.780396	1221.954712	1681.609863	1374.414551	33.168308
851.080994	1203.750488	1720.293701	1394.894287	37.004417
851.381470	1206.026001	1688.436401	1390.343262	38.207565
851.681946	1210.577026	1642.926025	1317.526489	24.736835
851.982361	1260.638550	1667.956787	1415.373901	37.988811
852.282715	1228.781250	1699.814087	1394.894287	35.265701
852.583008	1192.372925	1652.028076	1401.720825	45.544556
852.883240	1274.291626	1713.467163	1440.404663	37.823837
853.183411	1285.669312	1708.916138	1374.414551	20.967728
853.483521	1183.270874	1692.987427	1347.108276	32.142845
853.783630	1231.056763	1661.130127	1374.414551	33.333332
854.083679	1233.332275	1665.681274	1401.720825	38.947365
854.383667	1242.434326	1649.752563	1435.853638	47.486042
854.683533	1174.168701	1613.344238	1381.241089	47.150257
854.983337	1187.821899	1661.130127	1399.445313	44.711544
855.283203	1237.883301	1586.037964	1358.485962	34.640541
855.582886	1206.026001	1677.058838	1456.333252	53.140087
855.882629	1262.914063	1661.130127	1358.485962	24.000011
856.182312	1228.781250	1665.681274	1351.659302	28.124981
856.481873	1260.638550	1631.548462	1397.169800	36.809814
856.781372	1185.546387	1681.609863	1340.281738	31.192652
857.080872	1196.923950	1667.956787	1342.557251	30.917866
857.380310	1265.189575	1654.303589	1376.690063	28.654966
857.679688	1251.536499	1720.293701	1360.761475	23.300970
857.979004	1206.026001	1597.415649	1394.894287	48.255821
858.278259	1221.954712	1658.854614	1317.526489	21.874983
858.577454	1251.536499	1670.232300	1403.996338	36.413033
858.876648	1228.781250	1647.477051	1356.210449	30.434793
859.175720	1258.363037	1638.375000	1308.424438	13.173638
859.474792	1276.567139	1629.272949	1324.353149	13.548405
859.773743	1235.607788	1561.007324	1383.516602	45.454525
860.072693	1235.607788	1574.660400	1383.516602	43.624149
860.371521	1301.597900	1711.191650	1408.547363	26.111107
860.670349	1315.250977	1599.691162	1365.312500	17.600018
860.969116	1233.332275	1649.752563	1351.659302	28.415289
861.267883	1269.740601	1647.477051	1435.853638	43.975910
861.566589	1249.260864	1642.926025	1317.526489	17.341038
861.865112	1228.781250	1608.793213	1344.832764	30.538910
862.163635	1260.638550	1647.477051	1287.944824	7.058831
862.462158	1251.536499	1590.588989	1390.343262	40.939610
862.760620	1231.056763	1579.211426	1331.179688	28.758175
863.059021	1246.985352	1595.140137	1381.241089	38.562084
863.357361	1310.699951	1583.762451	1397.169800	31.666687
863.655640	1253.812012	1670.232300	1397.169800	34.426228
863.953857	1219.679199	1654.303589	1358.485962	31.937178
864.251953	1233.332275	1624.721802	1315.250977	20.930223
864.550110	1212.852539	1733.946899	1335.730713	23.580791
864.848206	1283.393677	1633.823975	1324.353149	11.688336
865.146179	1249.260864	1633.823975	1297.046875	12.426052
865.444092	1231.056763	1649.752563	1351.659302	28.804335
865.741943	1253.812012	1570.109375	1367.588013	35.971214
866.039795	1171.893188	1658.854614	1419.924927	50.934578
866.337646	1224.230225	1601.966675	1276.567139	13.855405
866.635376	1281.118164	1674.783325	1360.761475	20.231232
866.933044	1258.363037	1624.721802	1403.996338	39.751553
867.230652	1249.260864	1617.895264	1333.455200	22.839521
867.528198	1228.781250	1656.579102	1312.975464	19.680841
867.825745	1256.087524	1672.507813	1358.485962	24.590166
868.123230	1242.434326	1665.681274	1310.699951	16.129030
868.420593	1133.209351	1631.548462	1390.343262	51.598179
868.717896	1249.260864	1663.405762	1356.210449	25.824194
869.015198	1249.260864	1636.099487	1310.699951	15.882356
869.312439	1312.975464	1649.752563	1326.628662	4.054076
869.609619	1253.812012	1633.823975	1360.761475	28.143709
869.906738	1246.985352	1640.650513	1301.597900	13.872843
870.203796	1310.699951	1715.742676	1308.424438	-0.561796
870.500854	1196.923950	1576.935913	1413.098389	56.886219
870.797791	1260.638550	1631.548462	1378.965576	31.901823
871.094666	1281.118164	1588.313477	1322.077637	13.333365
871.391602	1196.923950	1522.323364	1369.863525	53.146862
871.688293	1272.016113	1583.762451	1399.445313	40.875923
871.985107	1183.270874	1608.793213	1349.383789	39.037415
872.281738	1256.087524	1608.793213	1351.659302	27.096750
872.578369	1235.607788	1649.752563	1367.588013	31.868137
872.874939	1206.026001	1683.885376	1435.853638	48.095245
873.171509	1251.536499	1529.150024	1306.148926	19.672106
873.467957	1215.128052	1583.762451	1403.996338	51.234581
873.764343	1221.954712	1597.415649	1292.495850	18.787876
874.060669	1265.189575	1661.130127	1410.822876	36.781609
874.356995	1165.066650	1563.282837	1369.863525	51.428566
874.653198	1171.893188	1583.762451	1283.393677	27.071815
874.949463	1299.322388	1615.619751	1312.975464	4.316532
875.245544	1256.087524	1601.966675	1369.863525	32.894726
875.541626	1185.546387	1606.517700	1385.792114	47.567547
875.837646	1249.260864	1581.486938	1426.751587	53.424683
876.133606	1246.985352	1624.721802	1299.322388	13.855437
876.429565	1278.842651	1622.446289	1322.077637	12.582808
876.725403	1221.954712	1581.486938	1299.322388	21.518982
877.021179	1251.536499	1624.721802	1281.118164	7.926803
877.316956	1242.434326	1649.752563	1308.424438	16.201118
877.612610	1262.914063	1752.151001	1353.934937	18.604662
877.908203	1162.791138	1645.201538	1315.250977	31.603764
878.203857	1206.026001	1654.303589	1376.690063	38.071068
878.499390	1274.291626	1631.548462	1342.557251	19.108276
878.794800	1306.148926	1640.650513	1413.098389	31.972782
879.090271	1224.230225	1733.946899	1358.485962	26.339287
879.385559	1251.536499	1638.375000	1410.822876	41.176453
879.680847	1219.679199	1677.058838	1440.404663	48.258698
879.976196	1258.363037	1640.650513	1469.986450	55.357140
880.271301	1235.607788	1763.528564	1399.445313	31.034491
880.566467	1201.474976	1799.937012	1449.506714	41.444859
880.861572	1235.607788	1897.784302	1495.017212	39.175266
881.156555	1199.199463	1947.845825	1554.180664	47.416405
881.451477	1224.230225	2241.387939	1581.486938	35.123039
881.746460	1240.158813	2662.359375	1683.885376	31.199999
882.041321	1224.230225	3422.383301	1941.019287	32.608696
882.336121	1192.372925	4211.988770	2191.326416	33.082138
882.630798	1194.648438	4817.277344	2298.276123	30.464828
882.925537	1208.301514	5056.207031	2371.092773	30.218809
883.220215	1178.719727	4651.164551	2348.337402	33.682831
883.514771	1208.301514	4346.244629	2177.673340	30.891951
883.809326	1196.923950	4296.183105	2168.571289	31.350954
884.103760	1171.893188	3891.140625	2041.142212	31.966528
884.398132	1292.495850	3515.679688	1975.152100	30.706244
884.692505	1199.199463	3456.516113	1861.375977	29.334675
884.986816	1199.199463	3208.484375	1802.212524	30.011328
885.281067	1224.230225	2928.595215	1813.590088	34.579441
885.575256	1312.975464	2848.952148	1731.671387	27.259262
885.869385	1185.546387	2650.981689	1622.446289	29.813660
886.163452	1221.954712	2539.481201	1595.140137	28.324699
886.457458	1199.199463	2371.092773	1510.945801	26.601938
886.751465	1244.709839	2116.234375	1549.629639	34.986942
887.045410	1240.158813	2077.550537	1490.466064	29.891298
887.339233	1212.852539	2009.284912	1438.129150	28.285717
887.632996	1246.985352	1968.325439	1413.098389	23.028395
887.926758	1272.016113	1845.447388	1417.649414	25.396818
888.220398	1183.270874	1804.488037	1360.761475	28.571426
888.514099	1272.016113	1872.753662	1347.108276	12.499995
888.807678	1215.128052	1793.110352	1369.863525	26.771664
889.101196	1301.597900	1758.977539	1351.659302	10.945262
889.394653	1176.444214	1704.365112	1406.271851	43.534485
889.688049	1244.709839	1745.324463	1324.353149	15.909106
889.981384	1212.852539	1677.058838	1303.873413	19.607849
890.274719	1162.791138	1683.885376	1356.210449	37.117912
890.567932	1244.709839	1608.793213	1308.424438	17.500002
>>>>>End Processed Spectral Data<<<<<
