Jaz Data File
++++++++++++++++++++++++++++++++++++
Date: Wed Feb 07 06:44:52 2024
User: jaz
Dark Spectrum Present: Yes
Reference Spectrum Present: Yes
Processed Spectrum Present: Yes
Spectrometers: JAZA3692
Integration Time (usec): 40000 (JAZA3692)
Spectra Averaged: 1 (JAZA3692)
Boxcar Smoothing: 0 (JAZA3692)
Correct for Electrical Dark: No (JAZA3692)
Strobe/Lamp Enabled: Yes (JAZA3692)
Correct for Detector Non-linearity: No (JAZA3692)
Correct for Stray Light: No (JAZA3692)
Number of Pixels in Processed Spectrum: 2048
>>>>>Begin Processed Spectral Data<<<<<
W	D	R	S	P
190.244385	0.000000	0.000000	0.000000	0.000000
190.627136	0.000000	0.000000	0.000000	0.000000
191.009842	1083.147949	1133.209351	1083.147949	0.000000
191.392532	1112.729614	1119.556274	1058.117188	-799.987488
191.775177	1108.178589	1076.321289	1053.566162	171.428299
192.157791	1074.045776	1146.862427	1105.903076	43.750019
192.540390	1196.923950	1101.352051	1112.729614	88.095284
192.922943	1142.311401	1117.280762	1105.903076	145.455032
193.305481	1085.423462	1274.291626	1130.933838	24.096373
193.687958	1201.474976	1078.596802	1067.219238	109.259224
194.070419	1180.995239	1158.240112	1110.454102	310.001068
194.452866	1130.933838	1167.342163	1121.831787	-24.999916
194.835251	1140.035889	1199.199463	1087.698975	-88.461380
195.217621	1155.964600	1133.209351	1094.525513	269.999634
195.599960	1092.250000	1165.066650	1071.770264	-28.125072
195.982254	1162.791138	1099.076538	1094.525513	107.142830
196.364517	1101.352051	1133.209351	1094.525513	-21.428490
196.746750	1085.423462	1192.372925	1067.219238	-17.021332
197.128952	1162.791138	1133.209351	1083.147949	269.230469
197.511139	1165.066650	1110.454102	1126.382813	70.833237
197.893280	1151.413574	1174.168701	1149.138062	-10.000000
198.275391	1110.454102	1140.035889	1076.321289	-115.384552
198.657471	1199.199463	1171.893188	1185.546387	49.999775
199.039520	1146.862427	1137.760376	1089.974487	625.001343
199.421539	1180.995239	1174.168701	1130.933838	733.335144
199.803513	1124.107300	1119.556274	1126.382813	-50.000000
200.185471	1206.026001	1137.760376	1155.964600	73.333252
200.567383	1117.280762	1180.995239	1074.045776	-67.857399
200.949265	1126.382813	1158.240112	1085.423462	-128.571320
201.331131	1165.066650	1208.301514	1089.974487	-173.684280
201.712967	1183.270874	1144.586914	1105.903076	199.999680
202.094742	1124.107300	1169.617676	1135.484863	24.999933
202.476517	1160.515625	1149.138062	1194.648438	-300.001068
202.858231	1153.689087	1133.209351	1178.719727	-122.221497
203.239944	1165.066650	1149.138062	1151.413574	85.714287
203.621582	1171.893188	1137.760376	1151.413574	59.999786
204.003235	1174.168701	1140.035889	1087.698975	253.333145
204.384827	1153.689087	1203.750488	1055.841675	-195.454803
204.766388	1174.168701	1092.250000	1071.770264	125.000076
205.147934	1133.209351	1228.781250	1110.454102	-23.809561
205.529449	1060.392700	1231.056763	1071.770264	6.666643
205.910904	1135.484863	1135.484863	1185.546387	0.000000
206.292343	1167.342163	1126.382813	1124.107300	105.555542
206.673767	1169.617676	1149.138062	1133.209351	177.778381
207.055115	1185.546387	1231.056763	1171.893188	-30.000187
207.436462	1112.729614	1162.791138	1083.147949	-59.090622
207.817780	1137.760376	1171.893188	1101.352051	-106.666641
208.199051	1126.382813	1158.240112	1103.627563	-71.428680
208.580307	1174.168701	1142.311401	1049.015137	392.856781
208.961517	1112.729614	1115.005249	1069.494751	-1899.903442
209.342712	1051.290649	1130.933838	1051.290649	0.000000
209.723846	1117.280762	1121.831787	998.953613	-2600.010742
210.104965	1160.515625	1151.413574	1105.903076	600.002686
210.486069	1099.076538	1149.138062	1089.974487	-18.181730
210.867111	1140.035889	1162.791138	1149.138062	40.000320
211.248123	1137.760376	1183.270874	1089.974487	-104.999702
211.629120	1167.342163	1185.546387	1060.392700	-587.498047
212.010071	1121.831787	1217.403687	1060.392700	-64.285721
212.390991	1165.066650	1146.862427	1083.147949	449.998322
212.771881	1117.280762	1192.372925	1060.392700	-75.757652
213.152756	1110.454102	1167.342163	1044.463989	-115.999931
213.533569	1149.138062	1124.107300	1096.801025	209.090866
213.914368	1142.311401	1108.178589	1112.729614	86.666718
214.295135	1180.995239	1099.076538	1155.964600	30.555464
214.675858	1140.035889	1185.546387	1110.454102	-64.999916
215.056549	1130.933838	1094.525513	1055.841675	206.249985
215.437225	1119.556274	1115.005249	1042.188477	1700.008057
215.817841	1171.893188	1217.403687	1060.392700	-244.999496
216.198441	1190.097412	1149.138062	1030.810913	388.889221
216.579025	1190.097412	1160.515625	1121.831787	230.769104
216.959549	1158.240112	1196.923950	1064.943726	-241.176651
217.340057	1135.484863	1151.413574	1108.178589	-171.428024
217.720535	1124.107300	1135.484863	1053.566162	-620.002136
218.100967	1144.586914	1194.648438	998.953613	-290.908661
218.481369	1153.689087	1160.515625	1035.361938	-1733.340454
218.861740	1137.760376	1212.852539	1133.209351	-6.060586
219.242065	1094.525513	1199.199463	1037.637451	-54.347870
219.622391	1099.076538	1199.199463	1046.739624	-52.272659
220.002670	1099.076538	1165.066650	1058.117188	-62.068920
220.382919	1089.974487	1251.536499	1085.423462	-2.816891
220.763123	1099.076538	1171.893188	1185.546387	118.750107
221.143295	1146.862427	1192.372925	1094.525513	-114.999649
221.523453	1112.729614	1146.862427	1060.392700	-153.333145
221.903549	1096.801025	1199.199463	1089.974487	-6.666643
222.283630	1108.178589	1165.066650	1135.484863	48.000008
222.663696	1140.035889	1144.586914	1060.392700	-1750.005371
223.043701	1169.617676	1224.230225	1083.147949	-158.333069
223.423676	1178.719727	1130.933838	1028.535400	314.285919
223.803635	1135.484863	1092.250000	1033.086426	236.842285
224.183548	1121.831787	1203.750488	1099.076538	-27.777843
224.563431	1124.107300	1187.821899	1133.209351	14.285660
224.943283	1215.128052	1265.189575	1105.903076	-218.181488
225.323105	1074.045776	1178.719727	1124.107300	47.826153
225.702881	1133.209351	1221.954712	1069.494751	-71.794853
226.082642	1080.872437	1140.035889	1101.352051	34.615314
226.462357	1089.974487	1151.413574	1053.566162	-59.259224
226.842041	1103.627563	1153.689087	1099.076538	-9.090865
227.221695	1178.719727	1208.301514	1130.933838	-161.538208
227.601318	1096.801025	1212.852539	1130.933838	29.411777
227.980911	1130.933838	1240.158813	1049.015137	-74.999969
228.360474	1083.147949	1171.893188	1078.596802	-5.128329
228.739990	1096.801025	1210.577026	1042.188477	-48.000061
229.119476	1121.831787	1228.781250	1053.566162	-63.829796
229.498932	1069.494751	1240.158813	1140.035889	41.333328
229.878372	1067.219238	1331.179688	1053.566162	-5.172395
230.257736	1153.689087	1358.485962	1124.107300	-14.444452
230.637115	1087.698975	1308.424438	1096.801025	4.123698
231.016449	1135.484863	1312.975464	1074.045776	-34.615402
231.395737	1096.801025	1237.883301	1067.219238	-20.967756
231.774994	1124.107300	1215.128052	1119.556274	-4.999987
232.154221	1140.035889	1303.873413	1076.321289	-38.888893
232.533417	1142.311401	1342.557251	1099.076538	-21.590891
232.912582	1128.658325	1231.056763	1062.668213	-64.444450
233.291702	1151.413574	1306.148926	1060.392700	-58.823582
233.670792	1155.964600	1231.056763	1146.862427	-12.121335
234.049866	1158.240112	1217.403687	1085.423462	-123.076828
234.428894	1096.801025	1144.586914	1117.280762	42.857288
234.807892	1176.444214	1226.505737	1069.494751	-213.636047
235.186874	1126.382813	1274.291626	1080.872437	-30.769211
235.565781	1101.352051	1244.709839	1155.964600	38.095280
235.944687	1126.382813	1274.291626	1074.045776	-35.384663
236.323547	1146.862427	1303.873413	1119.556274	-17.391237
236.702377	1115.005249	1256.087524	1144.586914	20.967669
237.081177	1124.107300	1258.363037	1101.352051	-16.949183
237.459946	1215.128052	1290.220337	1085.423462	-172.726913
237.838669	1233.332275	1231.056763	1071.770264	7100.026855
238.217361	1206.026001	1274.291626	1130.933838	-109.999962
238.596039	1119.556274	1342.557251	1064.943726	-24.489824
238.974670	1119.556274	1240.158813	1076.321289	-35.849152
239.353271	1137.760376	1353.934937	1146.862427	4.210510
239.731842	1149.138062	1253.812012	1103.627563	-43.478340
240.110367	1155.964600	1376.690063	1112.729614	-19.587675
240.488876	1162.791138	1303.873413	1101.352051	-43.548409
240.867340	1060.392700	1424.476074	1071.770264	3.124989
241.245789	1146.862427	1356.210449	1058.117188	-42.391247
241.624176	1083.147949	1406.271851	1058.117188	-7.746490
242.002548	1153.689087	1415.373901	1158.240112	1.739125
242.380890	1121.831787	1447.231201	1058.117188	-19.580429
242.759186	1046.739624	1542.803101	1160.515625	22.935774
243.137451	1067.219238	1699.814087	1101.352051	5.395683
243.515686	1169.617676	1699.814087	1137.760376	-6.008584
243.893890	1151.413574	1652.028076	1149.138062	-0.454544
244.272049	1115.005249	1670.232300	1219.679199	18.852459
244.650192	1105.903076	1588.313477	1085.423462	-4.245268
245.028290	1130.933838	1604.242188	1101.352051	-6.250003
245.406357	1130.933838	1558.731689	1115.005249	-3.723392
245.784393	1119.556274	1570.109375	1128.658325	2.020195
246.162384	1206.026001	1570.109375	1089.974487	-31.874983
246.540359	1162.791138	1604.242188	1083.147949	-18.041227
246.918289	1137.760376	1626.997314	1151.413574	2.790713
247.296204	1196.923950	1770.355225	1085.423462	-19.444437
247.674057	1153.689087	2018.386963	1162.791138	1.052628
248.051895	1187.821899	2195.877686	1160.515625	-2.708806
248.429703	1226.505737	2168.571289	1231.056763	0.483090
248.807465	1153.689087	2161.744873	1180.995239	2.708794
249.185196	1155.964600	2045.693237	1196.923950	4.603578
249.562897	1108.178589	1902.335449	1146.862427	4.871058
249.940567	1101.352051	1961.498901	1099.076538	-0.264549
250.318192	1160.515625	1781.732788	1149.138062	-1.831495
250.695801	1144.586914	1695.262939	1206.026001	11.157029
251.073349	1096.801025	1647.477051	1203.750488	19.421486
251.450882	1160.515625	1529.150024	1169.617676	2.469127
251.828400	1167.342163	1556.456177	1078.596802	-22.807034
252.205872	1101.352051	1683.885376	1115.005249	2.343763
252.583313	1110.454102	1736.222412	1105.903076	-0.727270
252.960693	1158.240112	1654.303589	1074.045776	-16.972492
253.338074	1128.658325	1834.069824	1101.352051	-3.870971
253.715408	1140.035889	1804.488037	1121.831787	-2.739716
254.092682	1176.444214	1890.957764	1080.872437	-13.375782
254.469955	1185.546387	1695.262939	1099.076538	-16.964300
254.847198	1085.423462	1624.721802	1112.729614	5.063274
255.224365	1023.984375	1638.375000	1055.841675	5.185186
255.601563	1101.352051	1629.272949	1155.964600	10.344835
255.978683	1110.454102	1531.425537	1099.076538	-2.702693
256.355743	1112.729614	1542.803101	1096.801025	-3.703690
256.732819	1146.862427	1556.456177	1133.209351	-3.333321
257.109894	1101.352051	1604.242188	1158.240112	11.312224
257.486877	1053.566162	1677.058838	1062.668213	1.459849
257.863831	1099.076538	1690.711914	1135.484863	6.153845
258.240753	1112.729614	1686.160889	1133.209351	3.571437
258.617645	1110.454102	1713.467163	1149.138062	6.415112
258.994507	1101.352051	1770.355225	1171.893188	10.544216
259.371307	1137.760376	1918.264038	1162.791138	3.207001
259.748108	1074.045776	1972.876587	1176.444214	11.392404
260.124878	1117.280762	2102.581299	1217.403687	10.161663
260.501617	1108.178589	2396.123291	1146.862427	3.003532
260.878296	1135.484863	2650.981689	1285.669312	9.909915
261.254944	1117.280762	2644.155273	1244.709839	8.345747
261.631561	1151.413574	2610.022461	1206.026001	3.744145
262.008179	1187.821899	2336.959961	1115.005249	-6.336632
262.384735	1142.311401	2182.224365	1137.760376	-0.437635
262.761261	1142.311401	1966.049927	1187.821899	5.524872
263.137695	1151.413574	1970.601074	1190.097412	4.722220
263.514191	1171.893188	2000.182739	1167.342163	-0.549449
263.890594	1080.872437	1929.641602	1078.596802	-0.268110
264.267029	1121.831787	1877.304688	1080.872437	-5.421684
264.643341	1044.463989	1879.580200	1137.760376	11.171665
265.019653	1060.392700	1886.406738	1165.066650	12.672175
265.395935	1103.627563	1854.549438	1183.270874	10.606071
265.772217	1158.240112	1815.865601	1187.821899	4.498272
266.148407	1083.147949	1781.732788	1185.546387	14.657982
266.524597	1096.801025	1959.223389	1178.719727	9.498675
266.900726	1160.515625	1979.703125	1142.311401	-2.222229
267.276855	1190.097412	2072.999512	1219.679199	3.350517
267.652924	1178.719727	1997.907227	1124.107300	-6.666658
268.028992	1112.729614	2109.407715	1137.760376	2.511419
268.404999	1183.270874	2013.835938	1183.270874	0.000000
268.781006	1124.107300	2200.428711	1171.893188	4.439742
269.156921	1183.270874	2070.723877	1144.586914	-4.358987
269.532837	1142.311401	2054.795166	1169.617676	2.992522
269.908661	1210.577026	2091.203613	1201.474976	-1.033588
270.284546	1092.250000	2050.244141	1167.342163	7.838479
270.660339	1144.586914	2120.785400	1151.413574	0.699311
271.036133	1126.382813	2164.020264	1210.577026	8.114030
271.411835	1146.862427	2132.163086	1190.097412	4.387999
271.787537	1101.352051	2232.285889	1215.128052	10.060359
272.163239	1049.015137	2503.072998	1187.821899	9.546165
272.538849	1174.168701	2655.532715	1242.434326	4.608295
272.914459	1158.240112	2544.032227	1201.474976	3.119866
273.290070	1149.138062	2468.940186	1185.546387	2.758620
273.665588	1101.352051	2245.938965	1221.954712	10.536785
274.041046	1094.525513	2377.919189	1231.056763	10.638298
274.416565	1028.535400	2314.204590	1187.821899	12.389384
274.791962	1051.290649	2270.969727	1192.372925	11.567163
275.167389	1155.964600	2227.734863	1149.138062	-0.636940
275.542755	1108.178589	2175.397949	1076.321289	-2.985075
275.918060	1121.831787	2241.387939	1169.617676	4.268289
276.293365	1121.831787	2280.071777	1206.026001	7.269151
276.668640	1160.515625	2355.164063	1178.719727	1.523804
277.043854	1099.076538	2277.796387	1180.995239	6.949802
277.419037	1144.586914	2402.949951	1176.444214	2.531646
277.794189	1206.026001	2380.194824	1208.301514	0.193798
278.169312	1144.586914	2309.653564	1178.719727	2.929688
278.544373	1167.342163	2264.143311	1262.914063	8.713695
278.919464	1149.138062	2309.653564	1146.862427	-0.196088
279.294464	1096.801025	2371.092773	1212.852539	9.107139
279.669464	1153.689087	2332.408936	1226.505737	6.177605
280.044403	1053.566162	2366.541748	1165.066650	8.492198
280.419312	1078.596802	2361.990479	1203.750488	9.751777
280.794189	1110.454102	2277.796387	1199.199463	7.602343
281.169037	1144.586914	2366.541748	1165.066650	1.675981
281.543854	1158.240112	2334.684326	1183.270874	2.127662
281.918671	1135.484863	2471.215576	1292.495850	11.754688
282.293365	1126.382813	2575.889648	1155.964600	2.040817
282.668091	1064.943726	2660.083740	1190.097412	7.845937
283.042786	1124.107300	2883.084961	1192.372925	3.880983
283.417419	1142.311401	2778.410889	1235.607788	5.702366
283.792053	1187.821899	2562.236328	1221.954712	2.483444
284.166595	1119.556274	2689.665527	1201.474976	5.217389
284.541138	1133.209351	2628.226563	1201.474976	4.566210
284.915619	1096.801025	2614.573486	1246.985352	9.895049
285.290100	1137.760376	2801.166016	1228.781250	5.471959
285.664520	1137.760376	2739.727051	1217.403687	4.971596
286.038940	1105.903076	2789.788574	1221.954712	6.891896
286.413300	1144.586914	2828.472412	1258.363037	6.756761
286.787628	1028.535400	2926.319824	1199.199463	8.992805
287.161896	1174.168701	2953.625977	1326.628662	8.567779
287.536194	1140.035889	3046.922363	1190.097412	2.625302
287.910400	1064.943726	2853.503174	1272.016113	11.577607
288.284607	1121.831787	2730.625000	1285.669312	10.183877
288.658752	1121.831787	2662.359375	1267.465088	9.453469
289.032867	1140.035889	2562.236328	1283.393677	10.079999
289.406921	1080.872437	2678.288086	1253.812012	10.826210
289.781006	1144.586914	2687.390137	1278.842651	8.702065
290.154999	1135.484863	2716.971924	1237.883301	6.474820
290.529022	1151.413574	2844.401123	1233.332275	4.838706
290.902954	1078.596802	2867.156250	1290.220337	11.832066
291.276825	1135.484863	3015.064941	1262.914063	6.779663
291.650757	1137.760376	2990.034424	1265.189575	6.879608
292.024597	1112.729614	2960.452637	1301.597900	10.221678
292.398407	1226.505737	2905.840088	1338.006226	6.639565
292.772156	1137.760376	2769.308838	1265.189575	7.810323
293.145905	1080.872437	2716.971924	1278.842651	12.100133
293.519592	1144.586914	2703.318604	1260.638550	7.445261
293.893280	1119.556274	2830.747803	1376.690063	15.026593
294.266907	1094.525513	2912.666504	1303.873413	11.514393
294.640533	1140.035889	2933.146240	1310.699951	9.517767
295.014069	1137.760376	2990.034424	1299.322388	8.722360
295.387604	1124.107300	3074.228516	1290.220337	8.518087
295.761078	1105.903076	3147.045166	1301.597900	9.587516
296.134552	1101.352051	3213.035400	1353.934937	11.961210
296.507996	1158.240112	3096.983887	1310.699951	7.863847
296.881378	1117.280762	3188.004639	1276.567139	7.692304
297.254730	1169.617676	3235.790527	1272.016113	4.955947
297.628021	1146.862427	3542.985840	1413.098389	11.111112
298.001282	1151.413574	3565.741211	1390.343262	9.896324
298.374573	1185.546387	3442.863037	1424.476074	10.584678
298.747803	1167.342163	3447.414063	1376.690063	9.181637
299.121002	1121.831787	3324.535889	1319.802124	8.987605
299.494141	1135.484863	3285.852051	1360.761475	10.476192
299.867188	1130.933838	3126.565674	1299.322388	8.437857
300.240265	1137.760376	3065.126465	1349.383789	10.979928
300.613312	1076.321289	2944.523926	1317.526489	12.911083
300.986328	1112.729614	3033.269287	1285.669312	9.004745
301.359314	1087.698975	2930.870850	1265.189575	9.629628
301.732239	1126.382813	2803.441650	1301.597900	10.447761
302.105103	1058.117188	2974.105713	1306.148926	12.945367
302.477997	1101.352051	2962.728027	1269.740601	9.046455
302.850830	1128.658325	3044.646729	1246.985352	6.175769
303.223602	1196.923950	2889.911377	1265.189575	4.032258
303.596375	1180.995239	3005.962891	1287.944824	5.860355
303.969116	1094.525513	2883.084961	1338.006226	13.613230
304.341766	1149.138062	2842.125488	1221.954712	4.301075
304.714478	1128.658325	2807.992676	1242.434326	6.775065
305.087067	1135.484863	2732.900391	1224.230225	5.555559
305.459656	1108.178589	2721.522949	1328.904175	13.681245
305.832214	1176.444214	2844.401123	1246.985352	4.229194
306.204681	1103.627563	2801.166016	1226.505737	7.238609
306.577148	1110.454102	2780.686523	1237.883301	7.629429
306.949646	1155.964600	2714.696289	1308.424438	9.781019
307.322021	1124.107300	2789.788574	1251.536499	7.650275
307.694397	1171.893188	2826.196777	1219.679199	2.888588
308.066742	1137.760376	2762.482178	1312.975464	10.784313
308.439026	1130.933838	2939.972900	1283.393677	8.427670
308.811279	1105.903076	3051.473389	1278.842651	8.888888
309.183502	1137.760376	3108.361328	1301.597900	8.314090
309.555695	1180.995239	3058.300049	1215.128052	1.818182
309.927887	1069.494751	3046.922363	1285.669312	10.932110
310.299988	1124.107300	3106.085938	1267.465088	7.233064
310.672058	1158.240112	3144.769775	1256.087524	4.925545
311.044128	1140.035889	3169.800537	1274.291626	6.614350
311.416168	1171.893188	3160.698486	1301.597900	6.521740
311.788147	1174.168701	3231.239502	1267.465088	4.535400
312.160065	1074.045776	3206.208740	1312.975464	11.205976
312.531982	1112.729614	3172.075928	1292.495850	8.729287
312.903870	1196.923950	3010.513916	1226.505737	1.631118
313.275696	1128.658325	2939.972900	1240.158813	6.155777
313.647491	1178.719727	3053.749023	1212.852539	1.820388
314.019318	1105.903076	3005.962891	1237.883301	6.946109
314.391022	1115.005249	2992.309814	1258.363037	7.636363
314.762726	1146.862427	2992.309814	1269.740601	6.658449
315.134369	1010.331238	3188.004639	1224.230225	9.822363
315.505981	1099.076538	3135.667725	1210.577026	5.474859
315.877594	1124.107300	3331.362549	1312.975464	8.556698
316.249146	1155.964600	3167.524902	1315.250977	7.918549
316.620636	1185.546387	3005.962891	1240.158813	2.999996
316.992157	1162.791138	3042.371338	1190.097412	1.452786
317.363586	1165.066650	2933.146240	1299.322388	7.593308
317.735016	1083.147949	2892.187012	1231.056763	8.176099
318.106354	1105.903076	2901.289063	1228.781250	6.844109
318.477722	1151.413574	2894.462402	1256.087524	6.005222
318.849060	1096.801025	2933.146240	1224.230225	6.939283
319.220306	1083.147949	2969.554688	1149.138062	3.498191
319.591522	1083.147949	2994.585449	1221.954712	7.261904
319.962738	1142.311401	3053.749023	1276.567139	7.023809
320.333923	1135.484863	3037.820313	1146.862427	0.598084
320.705017	1144.586914	2937.697266	1242.434326	5.456854
321.076111	1180.995239	3071.953125	1262.914063	4.332134
321.447144	1155.964600	2990.034424	1278.842651	6.699748
321.818176	1146.862427	2873.982666	1226.505737	4.611336
322.189178	1149.138062	2810.268311	1224.230225	4.520546
322.560120	1155.964600	2980.932129	1240.158813	4.613464
322.931030	1092.250000	2930.870850	1260.638550	9.158416
323.301910	1146.862427	3115.187988	1199.199463	2.658962
323.672729	1187.821899	3208.484375	1194.648438	0.337837
324.043549	1101.352051	3288.127441	1315.250977	9.781477
324.414337	1140.035889	3390.525879	1242.434326	4.550051
324.785095	1165.066650	3629.455566	1285.669312	4.893816
325.155792	1110.454102	3597.598389	1203.750488	3.751145
325.526428	1160.515625	3533.883789	1162.791138	0.095877
325.897034	1142.311401	3461.067139	1176.444214	1.472031
326.267670	1124.107300	3483.822266	1212.852539	3.760846
326.638184	1071.770264	3379.148438	1260.638550	8.185407
327.008728	1174.168701	3542.985840	1206.026001	1.344861
327.379211	1153.689087	3527.057129	1315.250977	6.807283
327.749634	1108.178589	3413.281250	1210.577026	4.442251
328.120026	1133.209351	3424.658691	1242.434326	4.766633
328.490417	1151.413574	3404.179199	1187.821899	1.616161
328.860748	1144.586914	3292.678711	1233.332275	4.131358
329.231079	1171.893188	3304.056152	1251.536499	3.735329
329.601318	1130.933838	3356.393066	1237.883301	4.805726
329.971558	1108.178589	3461.067139	1258.363037	6.382981
330.341736	1108.178589	3269.923340	1231.056763	5.684213
330.711914	1103.627563	3374.597412	1251.536499	6.513030
331.082062	1121.831787	3422.383301	1281.118164	6.923834
331.452148	1151.413574	3306.331787	1249.260864	4.540650
331.822174	1126.382813	3326.811523	1269.740601	6.514994
332.192200	1144.586914	3431.485352	1210.577026	2.885572
332.562134	1069.494751	3445.138428	1231.056763	6.800768
332.932129	1149.138062	3602.149414	1233.332275	3.432280
333.302063	1071.770264	3784.191162	1171.893188	3.691275
333.671906	1092.250000	3665.864014	1276.567139	7.161802
334.041718	1096.801025	3645.384277	1217.403687	4.732145
334.411499	1078.596802	3891.140625	1260.638550	6.472494
334.781281	1105.903076	3772.813477	1208.301514	3.839591
335.151001	1237.883301	3772.813477	1272.016113	1.346499
335.520721	1167.342163	3695.445801	1258.363037	3.600362
335.890350	1169.617676	3618.078125	1249.260864	3.252786
336.259979	1160.515625	3800.119629	1242.434326	3.103447
336.629547	1196.923950	3845.630127	1196.923950	0.000000
336.999084	1108.178589	3713.649902	1217.403687	4.192144
337.368622	1019.433350	3697.721191	1285.669312	9.940528
337.738098	1067.219238	3863.834229	1349.383789	10.089503
338.107513	1067.219238	3756.884766	1272.016113	7.614213
338.476898	1099.076538	3729.578613	1221.954712	4.671282
338.846252	1151.413574	3825.150391	1278.842651	4.765954
339.215576	1171.893188	3809.221924	1240.158813	2.588438
339.584869	1096.801025	3884.313965	1165.066650	2.448980
339.954132	1201.474976	3763.711426	1249.260864	1.865007
340.323334	1115.005249	3574.843262	1178.719727	2.590190
340.692505	1087.698975	3656.761963	1226.505737	5.403011
341.061646	1103.627563	3643.108887	1240.158813	5.376344
341.430786	1192.372925	3684.068115	1240.158813	1.917806
341.799896	1212.852539	3711.374512	1231.056763	0.728600
342.168915	1180.995239	3788.742188	1228.781250	1.832463
342.537903	1153.689087	3882.038574	1253.812012	3.669725
342.906830	1119.556274	3852.456787	1324.353149	7.493755
343.275757	1201.474976	3991.263428	1281.118164	2.854811
343.644684	1153.689087	4032.222900	1237.883301	2.924899
344.013550	1126.382813	4070.906738	1235.607788	3.709427
344.382355	1180.995239	4109.590332	1219.679199	1.320905
344.751129	1103.627563	4282.530273	1251.536499	4.652830
345.119873	1126.382813	4548.766113	1294.771362	4.920213
345.488586	1112.729614	4639.787109	1333.455200	6.258066
345.857269	1151.413574	4785.420410	1292.495850	3.882279
346.225891	1165.066650	4805.899902	1322.077637	4.312501
346.594482	1110.454102	4801.349121	1265.189575	4.192357
346.963043	1158.240112	4956.084473	1290.220337	3.475135
347.331543	1153.689087	4637.511230	1376.690063	6.401043
347.700043	1105.903076	4505.531250	1210.577026	3.078982
348.068512	1067.219238	4296.183105	1290.220337	6.906274
348.436951	1151.413574	4369.000000	1274.291626	3.818951
348.805328	1069.494751	4309.836426	1278.842651	6.460673
349.173645	1160.515625	4132.345703	1242.434326	2.756507
349.541931	1119.556274	4252.948242	1258.363037	4.429920
349.910217	1083.147949	4328.040527	1240.158813	4.838707
350.278473	1169.617676	4505.531250	1312.975464	4.297407
350.646667	1055.841675	4639.787109	1256.087524	5.587302
351.014801	1140.035889	4500.979980	1324.353149	5.484092
351.382935	1140.035889	4480.500488	1299.322388	4.768394
351.751007	1076.321289	4694.399414	1326.628662	6.918241
352.119049	1149.138062	4660.266602	1297.046875	4.212572
352.487091	1183.270874	4637.511230	1237.883301	1.581026
352.855072	1130.933838	4644.337891	1340.281738	5.958549
353.222992	1144.586914	4635.235840	1265.189575	3.455021
353.590881	1219.679199	4867.338867	1292.495850	1.996257
353.958740	1196.923950	4876.440918	1292.495850	2.597403
354.326599	1053.566162	5179.085449	1278.842651	5.460560
354.694397	1137.760376	5038.002930	1278.842651	3.617269
355.062134	1201.474976	5242.799805	1274.291626	1.801802
355.429840	1119.556274	5386.157715	1260.638550	3.306666
355.797516	1105.903076	5481.729492	1312.975464	4.732190
356.165192	1117.280762	5618.260742	1308.424438	4.246712
356.532776	1171.893188	5577.301270	1306.148926	3.047521
356.900360	1155.964600	5747.965332	1378.965576	4.856292
357.267883	1058.117188	5904.976563	1376.690063	6.572769
357.635376	1105.903076	6355.529785	1351.659302	4.681404
358.002808	1124.107300	6505.713867	1367.588013	4.524313
358.370270	1165.066650	6856.144043	1388.067749	3.918434
358.737640	1130.933838	6931.236328	1413.098389	4.864652
359.105011	1128.658325	6621.765625	1376.690063	4.515326
359.472321	1174.168701	6403.315430	1442.680176	5.134901
359.839569	1103.627563	6321.396973	1392.618774	5.538597
360.206787	1137.760376	6141.630859	1413.098389	5.502501
360.574005	1126.382813	6569.428711	1447.231201	5.894648
360.941193	1069.494751	6696.857910	1440.404663	6.591185
361.308319	1126.382813	7170.166016	1479.088501	5.835843
361.675415	1087.698975	7645.750000	1501.843750	6.315059
362.042450	1126.382813	8282.895508	1458.608887	4.642290
362.409424	1155.964600	8585.540039	1444.955688	3.889739
362.776428	1117.280762	9004.235352	1558.731689	5.597229
363.143402	1101.352051	8510.448242	1606.517700	6.818182
363.510284	1162.791138	7948.394043	1435.853638	4.024145
363.877136	1199.199463	7154.237305	1483.639526	4.776461
364.243988	1064.943726	6639.969727	1388.067749	5.795920
364.610779	1144.586914	6446.550293	1410.822876	5.021460
364.977539	1165.066650	6271.335449	1376.690063	4.144385
365.344269	1117.280762	6178.039063	1392.618774	5.440647
365.710938	1169.617676	6116.600098	1381.241089	4.277828
366.077576	1105.903076	5875.394531	1442.680176	7.061069
366.444183	1108.178589	5916.354004	1310.699951	4.212021
366.810760	1142.311401	5884.496582	1319.802124	3.742805
367.177277	1158.240112	5914.078613	1385.792114	4.784688
367.543823	1094.525513	6048.334473	1476.812988	7.717041
367.910248	1155.964600	5859.465820	1312.975464	3.338170
368.276642	1112.729614	5900.425293	1356.210449	5.085554
368.643036	1112.729614	5893.598633	1292.495850	3.760116
369.009399	1115.005249	5829.884277	1333.455200	4.633204
369.375671	1062.668213	5645.566895	1317.526489	5.561072
369.741974	1030.810913	5677.424316	1369.863525	7.296769
370.108215	1126.382813	5750.241211	1363.036987	5.118110
370.474396	1144.586914	5718.383789	1326.628662	3.980101
370.840546	1178.719727	5736.587891	1328.904175	3.295059
371.206665	1137.760376	5977.792969	1358.485962	4.560415
371.572784	1099.076538	5930.007324	1297.046875	4.097975
371.938843	1094.525513	6082.467285	1351.659302	5.155108
372.304840	1130.933838	6150.732910	1372.139038	4.805077
372.670807	1105.903076	6316.845703	1392.618774	5.502185
373.036713	1124.107300	5984.619629	1408.547363	5.852059
373.402649	1130.933838	5998.272949	1363.036987	4.768584
373.768524	1087.698975	6034.681152	1388.067749	6.071757
374.134308	1119.556274	6153.008301	1356.210449	4.701628
374.500122	1169.617676	6082.467285	1385.792114	4.400184
374.865875	1151.413574	6137.079590	1488.190552	6.754904
375.231567	1087.698975	6248.580078	1429.027100	6.613757
375.597260	1185.546387	6423.795410	1438.129150	4.821893
375.962891	1110.454102	6514.815918	1524.598877	7.663158
376.328461	1115.005249	6658.173828	1447.231201	5.993431
376.694031	1089.974487	6690.031250	1454.057739	6.501421
377.059540	1142.311401	7192.921387	1433.578125	4.813841
377.425049	1112.729614	7406.820313	1558.731689	7.086044
377.790497	1126.382813	7638.923340	1545.078613	6.429070
378.155945	1196.923950	7868.750977	1556.456177	5.388812
378.521301	1119.556274	7943.843262	1561.007324	6.468823
378.886597	1178.719727	7550.178223	1615.619751	6.857143
379.251892	1153.689087	7176.992676	1579.211426	7.064600
379.617157	1094.525513	7026.808105	1449.506714	5.983889
379.982422	1121.831787	6994.951172	1506.394775	6.547849
380.347595	1108.178589	6865.246094	1467.710938	6.245060
380.712738	1121.831787	6776.500977	1499.568237	6.680081
381.077820	1062.668213	6910.756836	1510.945801	7.665369
381.442902	1142.311401	6808.358398	1529.150024	6.827311
381.807953	1062.668213	6783.327637	1501.843750	7.677009
382.172974	1062.668213	6655.898438	1613.344238	9.845402
382.537933	1110.454102	6660.449219	1556.456177	8.036080
382.902832	1149.138062	6796.980469	1542.803101	6.970185
383.267700	1146.862427	7033.634766	1533.701050	6.571320
383.632538	1142.311401	7031.359375	1567.833862	7.225658
383.997345	1187.821899	7206.574219	1522.323364	5.557654
384.362152	1112.729614	7377.238281	1674.783325	8.972032
384.726898	1151.413574	7545.626953	1647.477051	7.758006
385.091553	1076.321289	7393.166992	1740.773438	10.518733
385.456238	1085.423462	7361.309570	1615.619751	8.448150
385.820862	1076.321289	7525.147461	1590.588989	7.974594
386.185425	1130.933838	7632.096680	1652.028076	8.015400
386.549988	1124.107300	7477.361328	1683.885376	8.810888
386.914490	1126.382813	7823.240723	1758.977539	9.446142
387.278961	1067.219238	7950.669922	1747.599976	9.884297
387.643372	1042.188477	7937.016602	1795.385864	10.924092
388.007782	1146.862427	7880.128418	1840.896362	10.307538
388.372101	1146.862427	7998.455566	1802.212524	9.564930
388.736450	1151.413574	7966.598145	1781.732788	9.248748
389.100739	1103.627563	8073.547852	1890.957764	11.296115
389.464966	1096.801025	7802.760742	1797.661377	10.451305
389.829163	1112.729614	7702.637695	1756.702026	9.772099
390.193329	1110.454102	7789.107910	1872.753662	11.413970
390.557495	1196.923950	7748.148438	1813.590088	9.412991
390.921570	1171.893188	7971.149414	1849.998413	9.973227
391.285614	1140.035889	8282.895508	1911.437500	10.799619
391.649597	1183.270874	8571.886719	1984.254150	10.840775
392.013550	1083.147949	8833.571289	1913.713013	10.716383
392.377502	1089.974487	9184.001953	2054.795166	11.920156
392.741455	1135.484863	9300.053711	2061.621826	11.343367
393.105316	1194.648438	9181.726563	2095.754639	11.282051
393.469086	1103.627563	8849.500000	1970.601074	11.192716
393.832886	1119.556274	8744.826172	2036.591064	12.026259
394.196655	1089.974487	9022.440430	2136.714111	13.195640
394.560333	1146.862427	9170.348633	2072.999512	11.542827
394.924042	1160.515625	9249.992188	2152.642578	12.264415
395.287659	1167.342163	9145.318359	2141.265137	12.207644
395.651245	1117.280762	9170.348633	2184.500000	13.252332
396.014771	1105.903076	8908.664063	2109.407715	12.860892
396.378296	1153.689087	8403.498047	2054.795166	12.429377
396.741791	1108.178589	8462.662109	2091.203613	13.366337
397.105255	1153.689087	8385.293945	2145.816162	13.719320
397.468628	1176.444214	8123.609375	2027.489014	12.250246
397.832001	1140.035889	8068.996582	2011.560425	12.577997
398.195313	1162.791138	8207.803711	2113.958740	13.501290
398.558624	1146.862427	8214.629883	2202.704102	14.938828
398.921844	1196.923950	8175.946289	2109.407715	13.074664
399.285095	1060.392700	8335.232422	2157.193604	15.076633
399.648254	1119.556274	8255.589844	2214.081787	15.338009
400.011383	1119.556274	8567.335938	2289.173828	15.704245
400.374451	1130.933838	8291.998047	2184.500000	14.712424
400.737549	1146.862427	8460.386719	2227.734863	14.779091
401.100586	1140.035889	8235.109375	2230.010498	15.362415
401.463562	1135.484863	8276.069336	2268.694336	15.869982
401.826508	1060.392700	8449.008789	2218.632813	15.676008
402.189392	1062.668213	8337.507813	2334.684326	17.485142
402.552246	1083.147949	8364.814453	2350.613037	17.406250
402.915070	1092.250000	8467.212891	2175.397949	14.686826
403.277893	1078.596802	8578.713867	2389.296875	17.475727
403.640656	1187.821899	8749.377930	2402.949951	16.069815
404.003326	1169.617676	9129.389648	2500.797363	16.723843
404.366028	1192.372925	9172.624023	2491.695313	16.281723
404.728699	1178.719727	9493.472656	2632.777588	17.487686
405.091248	1121.831787	9937.199219	2619.124512	16.985029
405.453857	1153.689087	9730.126953	2673.737061	17.723536
405.816345	1099.076538	9620.902344	2521.277100	16.688917
406.178833	1212.852539	9739.229492	2578.165039	16.012810
406.541260	1160.515625	9839.351563	2669.185791	17.383324
406.903687	1155.964600	9381.972656	2471.215576	15.988935
407.266052	1162.791138	9070.225586	2573.614014	17.841726
407.628387	1194.648438	9286.400391	2578.165039	17.097862
407.990662	1221.954712	8986.031250	2587.267090	17.584993
408.352905	1217.403687	9272.747070	2641.879639	17.683617
408.715118	1053.566162	9149.869141	2644.155273	19.645870
409.077332	1092.250000	8842.673828	2623.675537	19.759249
409.439484	1133.209351	8972.378906	2628.226563	19.071117
409.801575	1119.556274	9224.960938	2719.247314	19.736103
410.163605	1096.801025	9227.237305	2710.145264	19.843267
410.525635	1112.729614	9541.258789	2789.788574	19.897409
410.887604	1162.791138	9645.932617	2792.063965	19.206007
411.249573	1144.586914	9900.791016	2885.360352	19.880457
411.611481	1178.719727	9887.137695	2846.676514	19.153385
411.973328	1130.933838	9789.290039	2846.676514	19.816032
412.335144	1112.729614	9570.840820	2830.747803	20.312078
412.696930	1144.586914	9413.829102	2762.482178	19.565218
413.058685	1121.831787	9293.226563	2751.104736	19.938738
413.420410	1121.831787	9454.789063	2762.482178	19.688694
413.782104	1092.250000	9689.167969	2848.952148	20.434092
414.143707	1112.729614	9714.198242	2805.717041	19.682539
414.505310	1110.454102	9545.809570	2810.268311	20.151068
414.866852	1128.658325	9741.504883	2901.289063	20.581242
415.228394	1105.903076	9884.862305	2930.870850	20.787975
415.589874	1089.974487	10087.383789	2980.932129	21.016691
415.951324	1053.566162	10217.088867	2990.034424	21.132357
416.312683	1112.729614	10485.599609	3096.983887	21.170189
416.674072	1169.617676	10665.366211	3078.779541	20.105440
417.035370	1126.382813	10874.713867	3190.280273	21.171803
417.396667	1119.556274	11218.317383	3071.953125	19.333035
417.757935	1130.933838	11238.796875	3019.616211	18.685278
418.119141	1101.352051	11985.167969	3092.432861	18.293959
418.480286	1076.321289	11823.606445	3224.413086	19.987297
418.841400	1067.219238	12524.466797	3167.524902	18.331676
419.202484	1133.209351	12924.958008	3467.893799	19.799307
419.563568	1185.546387	13480.185547	3547.536865	19.211548
419.924591	1128.658325	14449.556641	3554.363525	18.209770
420.285553	1099.076538	14301.648438	3640.833252	19.251982
420.646484	1092.250000	15484.918945	3963.957275	19.952570
421.007355	1146.862427	15382.520508	4004.916504	20.076727
421.368225	1178.719727	16292.728516	4223.366699	20.144537
421.729065	1089.974487	16750.109375	4366.724609	20.924149
422.089874	1201.474976	17412.285156	4457.745117	20.087029
422.450592	1140.035889	17196.111328	4507.806641	20.975056
422.811279	1080.872437	17405.458984	4516.908691	21.048227
423.171936	1151.413574	17275.753906	4541.939453	21.027378
423.532593	1183.270874	16624.955078	4309.836426	20.247566
423.893127	1140.035889	16688.669922	4464.571777	21.381531
424.253723	1130.933838	17018.619141	4605.654297	21.870527
424.614197	1108.178589	17473.724609	4617.031738	21.440489
424.974670	1165.066650	17630.734375	4858.236816	22.429520
425.335052	1153.689087	18044.880859	4812.726563	21.662401
425.695496	1190.097412	17389.529297	4783.144531	22.180082
426.055817	1105.903076	17289.406250	4776.318359	22.679981
426.416168	1119.556274	17107.365234	4751.287598	22.715630
426.776398	1096.801025	16144.820313	4678.470703	23.801601
427.136627	1169.617676	15564.562500	4455.469727	22.826429
427.496826	1169.617676	15746.603516	4428.163574	22.354044
427.856995	1087.698975	14906.936523	4280.254395	23.102255
428.217102	1083.147949	14383.567383	4107.314941	22.737379
428.577179	1069.494751	14217.454102	4116.416992	23.174109
428.937195	1128.658325	13912.534180	4061.804688	22.944109
429.297180	1133.209351	13407.368164	3934.375488	22.821653
429.657135	1174.168701	13514.318359	3913.895752	22.201733
430.017059	1078.596802	13682.707031	3979.885986	23.018595
430.376984	1101.352051	13314.072266	3879.762939	22.750139
430.736786	1071.770264	13209.398438	3806.946289	22.534683
431.096588	1126.382813	13241.255859	3772.813477	21.844477
431.456360	1074.045776	13006.876953	3998.090088	24.504196
431.816071	1087.698975	12783.875977	3829.701416	23.443579
432.175781	1074.045776	12902.203125	3854.732178	23.509043
432.535400	1080.872437	12990.948242	3968.508301	24.245317
432.895020	1112.729614	12936.335938	3963.957275	24.114702
433.254578	1044.463989	13093.346680	3961.681641	24.211521
433.614105	1110.454102	13425.572266	4091.386475	24.205471
433.973602	1044.463989	13509.766602	4223.366699	25.502010
434.333038	1155.964600	13691.808594	4107.314941	23.543293
434.692444	1128.658325	13616.716797	4118.692871	23.943151
435.051819	1140.035889	13898.880859	4387.204102	25.450331
435.411133	1192.372925	13944.391602	4434.990234	25.428267
435.770416	1110.454102	13350.480469	4275.703613	25.859825
436.129669	1124.107300	13969.421875	4434.990234	25.775023
436.488861	1135.484863	13484.736328	4371.275391	26.202320
436.848083	1133.209351	13646.297852	4469.123047	26.659393
437.207184	1117.280762	13596.236328	4651.164551	28.318748
437.566254	1187.821899	13853.371094	4673.919922	27.524256
437.925293	1126.382813	13657.675781	4578.347656	27.546757
438.284363	1115.005249	13973.973633	4742.185547	28.207396
438.643311	1133.209351	14492.791992	4714.878906	26.809740
439.002258	1135.484863	14281.168945	4894.645020	28.596155
439.361145	1105.903076	14781.783203	5179.085449	29.783695
439.719971	1206.026001	15175.448242	5028.900879	27.366022
440.078827	1158.240112	15389.347656	5199.564941	28.397823
440.437592	1080.872437	15748.879883	5686.526367	31.399313
440.796295	1149.138062	16128.891602	5661.495605	30.123041
441.155029	1142.311401	17102.814453	5877.670410	29.669233
441.513672	1135.484863	17316.712891	6180.314453	31.177050
441.872253	1140.035889	17334.917969	6139.354980	30.869749
442.230865	1096.801025	16832.027344	6061.987305	31.554592
442.589386	1108.178589	16706.873047	6061.987305	31.757841
442.947876	1110.454102	16538.484375	5980.068848	31.563425
443.306335	1140.035889	16351.892578	6055.160645	32.311146
443.664764	1135.484863	15744.328125	5848.088379	32.258568
444.023102	1049.015137	16097.034180	5914.078613	32.330257
444.381500	1126.382813	15839.900391	5859.465820	32.168262
444.739777	1130.933838	15753.430664	5957.313477	33.006538
445.098022	1219.679199	16338.239258	5836.710938	30.538832
445.456238	1058.117188	15953.676758	6118.875488	33.974945
445.814423	1071.770264	16838.853516	6237.202637	32.760864
446.172577	1083.147949	17676.246094	6419.244141	32.158531
446.530701	1117.280762	17218.865234	6583.081543	33.945732
446.888733	1126.382813	18304.289063	6724.164063	32.587097
447.246765	1126.382813	19330.548828	7151.961914	33.100002
447.604736	1124.107300	18791.250000	6612.663574	31.066462
447.962677	1149.138062	18261.054688	6831.113281	33.204784
448.320587	1117.280762	19093.894531	7085.971680	33.202534
448.678436	1155.964600	18702.505859	6963.093750	33.095577
449.036255	1165.066650	18295.187500	6733.266113	32.505310
449.394043	1174.168701	17405.458984	6624.041016	33.576332
449.751770	1101.352051	17708.103516	6580.806152	32.995338
450.109467	1124.107300	16925.324219	6469.305664	33.827763
450.467163	1085.423462	16579.445313	6371.458008	34.116608
450.824768	1119.556274	16768.312500	6193.967773	32.426933
451.182343	1096.801025	16322.310547	6382.835938	34.718281
451.539886	1110.454102	15705.644531	5998.272949	33.489243
451.897369	1135.484863	16044.697266	6046.058594	32.936504
452.254822	1051.290649	15698.818359	6005.099609	33.820107
452.612274	1155.964600	16320.035156	6184.865723	33.163269
452.969635	1119.556274	16258.595703	5995.997070	32.211033
453.326965	1215.128052	16156.197266	6109.773438	32.759674
453.684326	1092.250000	15842.175781	6002.823730	33.292194
454.041534	1078.596802	15482.643555	5914.078613	33.570301
454.398773	1206.026001	15350.663086	5798.026855	32.464607
454.755951	1174.168701	14977.477539	5515.862305	31.454004
455.113098	1124.107300	14426.801758	5413.463867	32.244267
455.470215	1110.454102	14599.741211	5606.883301	33.333336
455.827240	1210.577026	14704.415039	5593.229980	32.478920
456.184265	1151.413574	14360.811523	5606.883301	33.729542
456.541260	1155.964600	14383.567383	5372.504395	31.876827
456.898193	1140.035889	14174.218750	5499.933594	33.449718
457.255096	1137.760376	14627.047852	5693.353027	33.771931
457.611969	1030.810913	14586.087891	5618.260742	33.842537
457.968781	1010.331238	14422.250977	5515.862305	33.593483
458.325531	1117.280762	14815.916016	5449.872559	31.627909
458.682312	1178.719727	15280.122070	5734.312500	32.305954
459.039001	1101.352051	16046.972656	5973.242188	32.597443
459.395630	1121.831787	16979.935547	6214.447266	32.113647
459.752289	1058.117188	18183.687500	6626.316406	32.513950
460.108856	1140.035889	19601.335938	7006.328613	31.776163
460.465363	1149.138062	20286.267578	7265.737793	31.961950
460.821899	1094.525513	20215.726563	7270.289063	32.297989
461.178345	1137.760376	19564.927734	7122.379883	32.477154
461.534760	1076.321289	19266.833984	7040.461426	32.787094
461.891144	1142.311401	18413.513672	6692.306641	32.134388
462.247467	1117.280762	17739.960938	6332.774414	31.375769
462.603760	1044.463989	17316.712891	6435.172852	33.128235
462.960052	1162.791138	16251.769531	6016.477051	32.167095
463.316254	1135.484863	16065.176758	5904.976563	31.946352
463.672424	1089.974487	15589.592773	5720.659180	31.936596
464.028564	1119.556274	15459.888672	5536.342285	30.799747
464.384644	1126.382813	14977.477539	5579.577148	32.150486
464.740723	1135.484863	15230.060547	5631.914063	31.901840
465.096741	1174.168701	15250.540039	5627.362793	31.635954
465.452698	1199.199463	15209.581055	5647.842773	31.752480
465.808655	1212.852539	15277.846680	5365.678223	29.525969
466.164520	1119.556274	15100.356445	5629.638672	32.259117
466.520355	1178.719727	15732.951172	5707.006348	31.113197
466.876190	1074.045776	15942.298828	5766.169922	31.558004
467.231964	1105.903076	15917.267578	5750.241211	31.356585
467.587677	1190.097412	16574.892578	5875.394531	30.454075
467.943390	1112.729614	16572.617188	5886.772461	30.880192
468.299011	1162.791138	16185.779297	5870.843750	31.338989
468.654633	1080.872437	15965.053711	5527.240234	29.873108
469.010223	1187.821899	16081.105469	5597.781250	29.610392
469.365723	1165.066650	15314.254883	5600.056641	31.344484
469.721191	1133.209351	15830.797852	5595.505859	30.360737
470.076660	1144.586914	14843.222656	5381.606934	30.930233
470.432068	1137.760376	15318.805664	5415.739746	30.166885
470.787445	1117.280762	15182.274414	5292.861328	29.687752
471.142792	1115.005249	15032.090820	5281.483887	29.937866
471.498016	1144.586914	15257.367188	5379.331055	30.006449
471.853271	1008.055725	15189.101563	5390.708984	30.905008
472.208496	1128.658325	15414.377930	5338.371582	29.467983
472.563660	1153.689087	15480.368164	5315.616699	29.050192
472.918762	1130.933838	15928.645508	5365.678223	28.617559
473.273865	1096.801025	16133.442383	5497.658203	29.267555
473.628876	1133.209351	16499.800781	5486.280762	28.328150
473.983917	1103.627563	16643.158203	5447.596680	27.954315
474.338837	1153.689087	16467.943359	5600.056641	29.034178
474.693787	1158.240112	16440.638672	5454.423340	28.111969
475.048645	1135.484863	16244.943359	5504.484863	28.915661
475.403503	1112.729614	16406.505859	5513.586914	28.775478
475.758270	1133.209351	16481.597656	5588.679199	29.028908
476.113037	1153.689087	16743.281250	5392.984375	27.193113
476.467773	1049.015137	17027.722656	5679.699707	28.980347
476.822418	1119.556274	17771.818359	5693.353027	27.466520
477.177063	1146.862427	17662.591797	5679.699707	27.445580
477.531647	1105.903076	18051.707031	5702.455078	27.125013
477.886200	1140.035889	18552.320313	5964.140137	27.705177
478.240723	1046.739624	19114.375000	5950.486816	27.141058
478.595184	1080.872437	18973.292969	5966.415527	27.305099
478.949585	1135.484863	19184.916016	6066.538574	27.319717
479.303986	1103.627563	19444.326172	6077.916016	27.121586
479.658325	1087.698975	19721.939453	6180.314453	27.329342
480.012634	1146.862427	19817.509766	6075.640625	26.398540
480.366913	1112.729614	20602.564453	6364.631836	26.946880
480.721130	1112.729614	20955.271484	6310.019043	26.192661
481.075317	1121.831787	21526.427734	6671.827148	27.199732
481.429474	1183.270874	22686.943359	6749.194824	25.883596
481.783569	1080.872437	23638.109375	7058.665527	26.500555
482.137604	1149.138062	24778.146484	7261.187012	25.866718
482.491669	1158.240112	26744.195313	7800.485352	25.960512
482.845612	1178.719727	29599.974609	8423.977539	25.492393
483.199554	1094.525513	33504.769531	9484.371094	25.886400
483.553436	1146.862427	39443.878906	10822.376953	25.264408
483.907318	1046.739624	45528.621094	12560.875000	25.885000
484.261139	1083.147949	52525.847656	14547.404297	26.173307
484.614899	1165.066650	54785.437500	15421.204102	26.587168
484.968628	1144.586914	54698.968750	15107.182617	26.071808
485.322357	1140.035889	52578.183594	14178.770508	25.348373
485.675964	1117.280762	48894.117188	13036.458984	24.947607
486.029572	1149.138062	45144.058594	11837.258789	24.293987
486.383148	1142.311401	41869.582031	10831.479492	23.790369
486.736694	1126.382813	39482.562500	10424.161133	24.240627
487.090149	1094.525513	39216.324219	10360.446289	24.306097
487.443604	1155.964600	40570.261719	10485.599609	23.670687
487.796997	1128.658325	42154.023438	11045.377930	24.172169
488.150360	1137.760376	43749.164063	11109.092773	23.400620
488.503693	1074.045776	44529.667969	11079.510742	23.024559
488.856964	1151.413574	43603.531250	11136.398438	23.520580
489.210175	1158.240112	41703.468750	10433.262695	22.875742
489.563416	1180.995239	39086.621094	9843.903320	22.853886
489.916565	1119.556274	36440.191406	9279.574219	23.102692
490.269653	1151.413574	34512.824219	8508.171875	22.051701
490.622772	1144.586914	33174.816406	8139.538086	21.838591
490.975769	1112.729614	33325.003906	8148.640137	21.842329
491.328735	1137.760376	34594.742188	8540.029297	22.124737
491.681732	1153.689087	36667.742188	8881.357422	21.759466
492.034607	1194.648438	39036.558594	9056.573242	20.775707
492.387482	1124.107300	39782.929688	9429.757813	21.484488
492.740326	1137.760376	39100.273438	9450.238281	21.896544
493.093079	1187.821899	36749.660156	8717.520508	21.173536
493.445862	1115.005249	33957.597656	8146.364258	21.409267
493.798523	1071.770264	31388.533203	7504.667480	21.218945
494.151215	1119.556274	29106.187500	6967.644531	20.896008
494.503815	1087.698975	26964.921875	6426.070801	20.629618
494.856384	1142.311401	25442.597656	6159.834961	20.648001
495.208923	1187.821899	24259.328125	5800.302734	19.992111
495.561432	1178.719727	23515.232422	5549.995117	19.570089
495.913879	1165.066650	23048.750000	5531.791016	19.954248
496.266296	1235.607788	23487.925781	5534.066406	19.316902
496.618683	1251.536499	23324.087891	5734.312500	20.309278
496.970978	1151.413574	24104.591797	5554.546387	19.183107
497.323273	1153.689087	24425.439453	5593.229980	19.076954
497.675507	1140.035889	24709.880859	5734.312500	19.492178
498.027710	1192.372925	24316.214844	5622.812012	19.159615
498.379852	1187.821899	24245.673828	5547.719727	18.908518
498.731995	1080.872437	23920.275391	5420.290527	18.999701
499.084076	1101.352051	23738.232422	5231.422363	18.244873
499.436096	1094.525513	23080.607422	5119.921875	18.308840
499.788086	1135.484863	22759.759766	5233.697754	18.951908
500.140106	1144.586914	22413.880859	4978.839355	18.027174
500.491943	1137.760376	21546.906250	4783.144531	17.861523
500.843842	1160.515625	21649.304688	4878.716797	18.147491
501.195679	1128.658325	21137.312500	4755.838379	18.128057
501.547455	1183.270874	20657.177734	4673.919922	17.924749
501.899231	1158.240112	20632.146484	4530.562012	17.317131
502.250885	1080.872437	20236.207031	4432.714355	17.498217
502.602600	1121.831787	20402.320313	4364.448730	16.818127
502.954193	1187.821899	20495.615234	4353.071289	16.393637
503.305786	1124.107300	19992.726563	4471.398438	17.739990
503.657379	1124.107300	20693.585938	4412.234863	16.802326
504.008820	1155.964600	20154.287109	4196.060547	16.001919
504.360291	1133.209351	20770.953125	4489.602539	17.091541
504.711700	1165.066650	20529.748047	4291.632324	16.145712
505.063080	1110.454102	20634.421875	4314.387207	16.410255
505.414368	1078.596802	20566.156250	4325.765137	16.662777
505.765656	1101.352051	20588.912109	4223.366699	16.020552
506.116943	1064.943726	20748.199219	4191.509277	15.884392
506.468109	1115.005249	20340.880859	4130.070313	15.682329
506.819305	1146.862427	20552.503906	4125.519043	15.349438
507.170410	1023.984375	20450.105469	4068.631104	15.672953
507.521484	1158.240112	20181.593750	4034.498291	15.119617
507.872559	1119.556274	20670.830078	4100.488281	15.246741
508.223480	1146.862427	20948.445313	4007.192139	14.444955
508.574493	1126.382813	20786.882813	4039.049316	14.814814
508.925385	1142.311401	21239.710938	4150.549805	14.968295
509.276245	1124.107300	21319.353516	4173.305176	15.098592
509.627045	1076.321289	21694.814453	4052.702637	14.435494
509.977814	1142.311401	21838.173828	4109.590332	14.337545
510.328613	1203.750488	22147.644531	4018.569824	13.439809
510.679260	1067.219238	22143.093750	4075.457764	14.273375
511.029999	1103.627563	22161.296875	4139.172363	14.415388
511.380585	1080.872437	22352.441406	4050.427002	13.960206
511.731140	1103.627563	22800.718750	4157.376465	14.074462
512.081726	1083.147949	22805.269531	4182.407227	14.267756
512.432129	1105.903076	23094.259766	4095.937500	13.598262
512.782654	1121.831787	23285.404297	4186.958496	13.829570
513.133057	1055.841675	23278.578125	4132.345703	13.843947
513.483398	1085.423462	23226.240234	4023.120850	13.268243
513.833801	1110.454102	23260.373047	3986.712402	12.985413
514.183960	1101.352051	22805.269531	4000.365479	13.357098
514.534302	1155.964600	22834.851563	3961.681641	12.942163
514.884460	1158.240112	22802.994141	3920.722412	12.762827
515.234619	1062.668213	22468.492188	3788.742188	12.735197
515.584717	1160.515625	22641.431641	3725.027588	11.938560
515.934753	1119.556274	22643.707031	3668.139648	11.840576
516.284851	1149.138062	22748.380859	3620.353516	11.441213
516.634766	1126.382813	23194.382813	3768.262451	11.971540
516.984741	1121.831787	23303.609375	3806.946289	12.105046
517.334595	1126.382813	24143.275391	3693.170166	11.151754
517.684448	1085.423462	24732.634766	3859.283203	11.730178
518.034363	1064.943726	25954.589844	3927.548828	11.501187
518.384094	1042.188477	26737.369141	4000.365479	11.512576
518.733826	1142.311401	27900.160156	3959.406250	10.528106
519.083496	1085.423462	28473.591797	4114.141602	11.058492
519.433167	1135.484863	28915.042969	4164.203125	10.902687
519.782776	1074.045776	28612.398438	4150.549805	11.171706
520.132324	1176.444214	28029.865234	3888.864990	10.100839
520.481873	1101.352051	27360.861328	3925.273438	10.753900
520.831299	1108.178589	27162.892578	3750.058350	10.139738
521.180786	1076.321289	26350.531250	3784.191162	10.713964
521.530151	1199.199463	25938.662109	3656.761963	9.933775
521.879517	1180.995239	25390.261719	3572.567627	9.878748
522.228882	1083.147949	25151.332031	3506.577637	10.069017
522.578064	1167.342163	25126.300781	3463.342773	9.583056
522.927307	1135.484863	25472.179688	3399.628174	9.303413
523.276489	1103.627563	25560.925781	3370.046387	9.266841
523.625610	1108.178589	25438.046875	3401.903564	9.427609
523.974792	1171.893188	26264.060547	3340.464600	8.642423
524.323792	1099.076538	26710.062500	3488.373291	9.329187
524.672852	1105.903076	27165.167969	3436.036377	8.941669
525.021790	1096.801025	28248.314453	3515.679688	8.908817
525.370728	1058.117188	29233.615234	3490.648926	8.633500
525.719604	1169.617676	30553.417969	3602.149414	8.278479
526.068420	1135.484863	32644.621094	3670.415039	8.045064
526.417297	1096.801025	34030.414063	4011.743164	8.850964
526.765991	1160.515625	34663.007813	3884.313965	8.130136
527.114746	1185.546387	35834.902344	4050.427002	8.268208
527.463379	1160.515625	37136.500000	3895.691650	7.602783
527.812012	1099.076538	38902.304688	4148.274414	8.065972
528.160706	1199.199463	42383.851563	4403.132813	7.779435
528.509155	1169.617676	47483.292969	4644.337891	7.502579
528.857727	1115.005249	52282.367188	5026.625488	7.644756
529.206177	1121.831787	54940.175781	5308.790039	7.779797
529.554565	1142.311401	55174.554688	5249.626465	7.601600
529.902893	1105.903076	54275.722656	5135.850586	7.579389
530.251221	1069.494751	51479.105469	4824.104004	7.448202
530.599548	1115.005249	47713.121094	4505.531250	7.276101
530.947876	1135.484863	43594.425781	4200.611328	7.219037
531.296021	1112.729614	40638.527344	3877.487549	6.994819
531.644165	1174.168701	37584.777344	3659.037354	6.824573
531.992249	1208.301514	35803.042969	3508.853027	6.650003
532.340454	1083.147949	34674.386719	3429.209961	6.984149
532.688354	1108.178589	35291.050781	3422.383301	6.770071
533.036438	1146.862427	36283.179688	3326.811523	6.204262
533.384338	1080.872437	39011.527344	3483.822266	6.335113
533.732239	1108.178589	40265.339844	3636.282227	6.456299
534.080139	1137.760376	40834.222656	3561.189941	6.104901
534.427917	1155.964600	40515.648438	3495.199951	5.943227
534.775757	1112.729614	38656.546875	3492.924316	6.339778
535.123474	1137.760376	37095.539063	3399.628174	6.290343
535.471191	1105.903076	35163.621094	3151.596191	6.006547
535.818848	1074.045776	33934.839844	3051.473389	6.017590
536.166382	1153.689087	32382.937500	2782.961914	5.217137
536.513977	1085.423462	33274.941406	2835.298828	5.436165
536.861511	1162.791138	33434.226563	2944.523926	5.521083
537.208984	1119.556274	33304.523438	2894.462402	5.514706
537.556396	1192.372925	33095.175781	2887.635986	5.313838
537.903809	1135.484863	32223.650391	2757.931152	5.218855
538.251160	1089.974487	31240.625000	2769.308838	5.569811
538.598389	1096.801025	29882.138672	2603.195801	5.233202
538.945740	1119.556274	28824.021484	2648.706299	5.519507
539.292969	1142.311401	28339.335938	2534.930176	5.120482
539.640137	1076.321289	28155.019531	2459.837891	5.109243
539.987244	1044.463989	28550.958984	2484.868652	5.236598
540.334351	1039.912964	29033.369141	2500.797363	5.218664
540.681458	1124.107300	30942.531250	2544.032227	4.761905
541.028442	1096.801025	33534.351563	2623.675537	4.707120
541.375366	1176.444214	36943.082031	2885.360352	4.777962
541.722290	1121.831787	39619.093750	2944.523926	4.734602
542.069153	1176.444214	42015.214844	2983.207764	4.424138
542.416016	1146.862427	42156.296875	3015.064941	4.555543
542.762756	1108.178589	41064.046875	2996.860840	4.726921
543.109558	1180.995239	39605.441406	2917.217773	4.518537
543.456299	1137.760376	37878.320313	2785.237549	4.484083
543.802917	1210.577026	36447.015625	2721.522949	4.288021
544.149536	1135.484863	34667.558594	2648.706299	4.512758
544.496094	1101.352051	32546.773438	2475.766602	4.370794
544.842651	1099.076538	30812.828125	2389.296875	4.342165
545.189148	1167.342163	29743.332031	2364.266113	4.188565
545.535583	1215.128052	28282.447266	2341.510986	4.161413
545.882019	1087.698975	27381.341797	2189.051025	4.188663
546.228333	1183.270874	27265.291016	2152.642578	3.716628
546.574707	1133.209351	27069.595703	2161.744873	3.965608
546.920898	1153.689087	27599.791016	2138.989502	3.725693
547.267212	1110.454102	27458.708984	2141.265137	3.912256
547.613342	1103.627563	27080.972656	2152.642578	4.038192
547.959473	1119.556274	26885.277344	2102.581299	3.815244
548.305664	1112.729614	26543.949219	2038.866699	3.641733
548.651611	1142.311401	25108.095703	2079.825928	3.911887
548.997742	1169.617676	24191.062500	1984.254150	3.538598
549.343689	1160.515625	23535.710938	1956.947876	3.559443
549.689575	1171.893188	22388.849609	1849.998413	3.196053
550.035522	1119.556274	21612.896484	1875.029175	3.686431
550.381287	1128.658325	20616.218750	1811.314575	3.503036
550.727173	1133.209351	20714.066406	1779.457275	3.300407
551.072876	1089.974487	20095.125000	1777.181763	3.615900
551.418640	1108.178589	19815.234375	1765.804199	3.515388
551.764282	1117.280762	19621.816406	1733.946899	3.332514
552.109863	1112.729614	20026.859375	1736.222412	3.296439
552.455505	1121.831787	19908.531250	1761.253052	3.403585
552.801025	1119.556274	20322.675781	1770.355225	3.389027
553.146545	1085.423462	20593.462891	1761.253052	3.464365
553.491943	1101.352051	20880.179688	1822.692139	3.647032
553.837341	1087.698975	20718.617188	1720.293701	3.222441
554.182800	1117.280762	20700.412109	1697.538574	2.963049
554.528015	1055.841675	20149.736328	1731.671387	3.539507
554.873352	1099.076538	20015.480469	1718.018188	3.271984
555.218628	1099.076538	19596.785156	1670.232300	3.087711
555.563721	1133.209351	19296.416016	1733.946899	3.307442
555.908875	1092.250000	18971.017578	1674.783325	3.258241
556.254028	1094.525513	18832.210938	1631.548462	3.027582
556.599121	1192.372925	18465.851563	1626.997314	2.516137
556.944031	1165.066650	18097.216797	1586.037964	2.486225
557.289063	1108.178589	18302.013672	1572.384888	2.699841
557.633972	1146.862427	17985.716797	1592.864502	2.648649
557.978882	1142.311401	18015.298828	1538.252075	2.346595
558.323792	1155.964600	17908.349609	1620.170776	2.770986
558.668518	1160.515625	17667.142578	1572.384888	2.495175
559.013306	1212.852539	17660.316406	1547.354126	2.033758
559.358032	1155.964600	17676.246094	1604.242188	2.713499
559.702637	1126.382813	17710.378906	1556.456177	2.593304
560.047363	1067.219238	17621.632813	1565.558350	3.010309
560.391846	1076.321289	17455.519531	1492.741699	2.542374
560.736450	1146.862427	17512.408203	1567.833862	2.572303
561.080933	1099.076538	17569.296875	1654.303589	3.371097
561.425354	1121.831787	17928.828125	1558.731689	2.599512
561.769775	1064.943726	17928.828125	1574.660400	3.022534
562.114136	1174.168701	18010.748047	1551.905151	2.243546
562.458496	1158.240112	17928.828125	1549.629639	2.333785
562.802673	1126.382813	18158.656250	1490.466064	2.137608
563.146912	1133.209351	17931.103516	1467.710938	1.991330
563.491150	1103.627563	17585.224609	1417.649414	1.905288
563.835266	1142.311401	17539.714844	1483.639526	2.081599
564.179443	1169.617676	17751.337891	1561.007324	2.360368
564.523438	1142.311401	17612.531250	1517.772339	2.279635
564.867493	1101.352051	17628.458984	1467.710938	2.216715
565.211426	1162.791138	18129.074219	1531.425537	2.172747
565.555359	1071.770264	18024.400391	1567.833862	2.926175
565.899231	1089.974487	18468.126953	1429.027100	1.951028
566.243042	1149.138062	19139.406250	1472.261963	1.796104
566.586914	1144.586914	19542.171875	1592.864502	2.436611
566.930603	1087.698975	19894.878906	1606.517700	2.758621
567.274292	1099.076538	19965.419922	1545.078613	2.364009
567.617981	1094.525513	19954.041016	1592.864502	2.642374
567.961609	1165.066650	19665.050781	1586.037964	2.275522
568.305237	1133.209351	19423.845703	1497.292725	1.990545
568.648682	1071.770264	18875.445313	1629.272949	3.131391
568.992188	1128.658325	18531.841797	1547.354126	2.405858
569.335632	1076.321289	18513.636719	1542.803101	2.675193
569.679016	1135.484863	18495.433594	1533.701050	2.293879
570.022461	1142.311401	18245.125000	1551.905151	2.394891
570.365662	1130.933838	18504.535156	1504.119263	2.148003
570.708984	1110.454102	18208.716797	1488.190552	2.209210
571.052185	1099.076538	18481.779297	1554.180664	2.618144
571.395386	1089.974487	18595.556641	1513.221313	2.417782
571.738525	1103.627563	19339.650391	1483.639526	2.083853
572.081604	1133.209351	19569.478516	1551.905151	2.271044
572.424683	1153.689087	19792.480469	1533.701050	2.038823
572.767578	1099.076538	20115.603516	1574.660400	2.500898
573.110596	1087.698975	19899.429688	1472.261963	2.044272
573.453552	1115.005249	19853.919922	1495.017212	2.027930
573.796387	1133.209351	19369.232422	1531.425537	2.183679
574.139282	1096.801025	19578.580078	1529.150024	2.339326
574.481995	1178.719727	19200.843750	1458.608887	1.553031
574.824768	1101.352051	19157.609375	1501.843750	2.218022
575.167480	1094.525513	19023.353516	1540.527588	2.487625
575.510132	1103.627563	18918.679688	1574.660400	2.644016
575.852722	1117.280762	18977.843750	1417.649414	1.681742
576.195251	1144.586914	18927.781250	1522.323364	2.124120
576.537842	1140.035889	18695.679688	1510.945801	2.112767
576.880188	1149.138062	18390.759766	1456.333252	1.781707
577.222717	1103.627563	17937.929688	1454.057739	2.081644
577.565063	1083.147949	17476.000000	1383.516602	1.832315
577.907410	1165.066650	17466.898438	1472.261963	1.884422
578.249756	1128.658325	17095.988281	1444.955688	1.980903
578.591919	1117.280762	16431.535156	1381.241089	1.723625
578.934204	1124.107300	16374.647461	1426.751587	1.984482
579.276306	1130.933838	16097.034180	1458.608887	2.189448
579.618469	1083.147949	15471.265625	1463.159912	2.641151
579.960571	1124.107300	15482.643555	1406.271851	1.965135
580.302551	1089.974487	15268.744141	1356.210449	1.877709
580.644531	1126.382813	15102.631836	1410.822876	2.035167
580.986511	1112.729614	14763.579102	1399.445313	2.100351
581.328369	1085.423462	14827.293945	1349.383789	1.920847
581.670227	1183.270874	14733.997070	1306.148926	0.906800
582.012024	1144.586914	14688.486328	1433.578125	2.133737
582.353821	1201.474976	14658.905273	1349.383789	1.099087
582.695496	1112.729614	14447.281250	1369.863525	1.928328
583.037231	1158.240112	14545.128906	1442.680176	2.124766
583.378845	1206.026001	14531.475586	1342.557251	1.024590
583.720398	1169.617676	14249.311523	1369.863525	1.530967
584.062012	1155.964600	14526.924805	1392.618774	1.769912
584.403442	1140.035889	14069.544922	1481.364014	2.639916
584.744934	1155.964600	14026.310547	1340.281738	1.432107
585.086365	1115.005249	14217.454102	1349.383789	1.788815
585.427734	1112.729614	14235.658203	1338.006226	1.716664
585.768982	1231.056763	14231.107422	1440.404663	1.610362
586.110291	1126.382813	14003.554688	1301.597900	1.360664
586.451599	1130.933838	13896.605469	1322.077637	1.497327
586.792725	1174.168701	14146.913086	1383.516602	1.613752
587.133850	1046.739624	13960.320313	1374.414551	2.537444
587.474915	1126.382813	14237.933594	1351.659302	1.718153
587.815979	1103.627563	14028.585938	1338.006226	1.813380
588.157043	1171.893188	14078.647461	1342.557251	1.322285
588.497925	1103.627563	14046.790039	1349.383789	1.898734
588.838867	1103.627563	14283.444336	1269.740601	1.260359
589.179749	1174.168701	14231.107422	1292.495850	0.906240
589.520569	1178.719727	14551.955078	1347.108276	1.259146
589.861450	1160.515625	14724.895508	1347.108276	1.375608
590.202087	1124.107300	14472.312500	1285.669312	1.210365
590.542847	1169.617676	14840.946289	1358.485962	1.381492
590.883484	1137.760376	14772.680664	1262.914063	0.917891
591.224121	1194.648438	14504.169922	1385.792114	1.436142
591.564636	1094.525513	14820.466797	1335.730713	1.757294
591.905151	1037.637451	14292.545898	1312.975464	2.077253
592.245667	1051.290649	14328.954102	1322.077637	2.039418
592.585999	1142.311401	14410.873047	1353.934937	1.594924
592.926453	1105.903076	14035.412109	1340.281738	1.812742
593.266724	1126.382813	14215.178711	1344.832764	1.668984
593.607056	1121.831787	14235.658203	1401.720825	2.134305
593.947388	1117.280762	14328.954102	1324.353149	1.567344
594.287476	1089.974487	14292.545898	1344.832764	1.930369
594.627686	1121.831787	14465.485352	1253.812012	0.989086
594.967773	1187.821899	14479.138672	1274.291626	0.650573
595.307861	1178.719727	14845.498047	1358.485962	1.315352
595.647888	1115.005249	14863.702148	1333.455200	1.588877
595.987854	1158.240112	15132.212891	1383.516602	1.612115
596.327820	1110.454102	15311.979492	1440.404663	2.323346
596.667725	1099.076538	15637.378906	1292.495850	1.330412
597.007568	1212.852539	16265.422852	1392.618774	1.194256
597.347351	1169.617676	16731.904297	1422.200562	1.623045
597.687073	1085.423462	17212.039063	1444.955688	2.229434
598.026794	1133.209351	16802.445313	1447.231201	2.004066
598.366455	1151.413574	16513.455078	1381.241089	1.496074
598.706116	1146.862427	16147.095703	1438.129150	1.941748
599.045654	1169.617676	15664.685547	1424.476074	1.758242
599.385193	1155.964600	15022.988281	1431.302612	1.985560
599.724731	1171.893188	14426.801758	1381.241089	1.579399
600.064087	1083.147949	14454.108398	1372.139038	2.161334
600.403564	1105.903076	13992.177734	1299.322388	1.500972
600.742920	1085.423462	13782.829102	1287.944824	1.594982
601.082153	1130.933838	13744.145508	1294.771362	1.298936
601.421387	1151.413574	13430.124023	1342.557251	1.556708
601.760620	1055.841675	13512.042969	1331.179688	2.210449
602.099854	1064.943726	13703.186523	1376.690063	2.466691
602.438843	1149.138062	13628.093750	1299.322388	1.203501
602.778015	1149.138062	13999.003906	1369.863525	1.717726
603.117065	1089.974487	14080.922852	1303.873413	1.646523
603.456055	1060.392700	14711.242188	1353.934937	2.150359
603.794983	1096.801025	14838.670898	1317.526489	1.606226
604.133850	1133.209351	15560.011719	1319.802124	1.293376
604.472778	1142.311401	15817.145508	1369.863525	1.550628
604.811584	1183.270874	16552.138672	1390.343262	1.347350
605.150330	1119.556274	16811.546875	1426.751587	1.957657
605.489075	1130.933838	17082.333984	1390.343262	1.626249
605.827698	1094.525513	16731.904297	1378.965576	1.818975
606.166382	1119.556274	16652.261719	1390.343262	1.743334
606.504883	1124.107300	16165.299805	1344.832764	1.467473
606.843445	976.198425	15616.899414	1331.179688	2.424619
607.181946	1140.035889	15318.805664	1310.699951	1.203659
607.520386	1165.066650	14349.434570	1335.730713	1.294443
607.858826	1162.791138	14301.648438	1410.822876	1.887773
608.197083	1149.138062	13958.044922	1310.699951	1.261325
608.535461	1085.423462	13776.002930	1381.241089	2.331002
608.873718	1146.862427	13821.513672	1358.485962	1.669660
609.211914	1146.862427	14404.046875	1388.067749	1.819431
609.550171	1080.872437	14615.669922	1328.904175	1.832548
609.888245	1144.586914	14986.580078	1333.455200	1.364459
610.226318	1092.250000	15396.173828	1344.832764	1.765828
610.564392	1190.097412	15530.429688	1369.863525	1.253570
610.902344	1144.586914	15177.723633	1374.414551	1.637750
611.240295	1133.209351	15054.845703	1287.944824	1.111475
611.578247	1101.352051	14338.056641	1297.046875	1.478426
611.916138	1089.974487	14476.863281	1340.281738	1.869794
612.253845	1146.862427	13826.064453	1358.485962	1.669060
612.591675	1117.280762	13537.073242	1338.006226	1.777207
612.929382	1160.515625	13461.981445	1301.597900	1.146874
613.267090	1142.311401	12990.948242	1283.393677	1.190705
613.604736	1144.586914	12947.712891	1278.842651	1.137459
613.942261	1133.209351	12485.782227	1319.802124	1.643617
614.279785	1046.739624	12474.405273	1353.934937	2.688172
614.617310	1130.933838	12137.627930	1328.904175	1.798636
614.954712	1085.423462	12267.333008	1372.139038	2.564102
615.292175	1178.719727	12078.464844	1353.934937	1.607517
615.629517	1187.821899	11969.239258	1262.914063	0.696496
615.966797	1183.270874	12060.259766	1301.597900	1.087866
616.304138	1103.627563	11980.617188	1210.577026	0.983263
616.641296	1119.556274	11932.831055	1278.842651	1.473063
616.978516	1130.933838	12060.259766	1331.179688	1.832188
617.315552	1201.474976	11989.718750	1267.465088	0.611685
617.652771	1235.607788	11841.810547	1267.465088	0.300365
617.989685	1124.107300	12094.392578	1347.108276	2.032773
618.326721	1121.831787	11855.462891	1292.495850	1.589994
618.663696	1142.311401	12078.464844	1272.016113	1.186018
619.000549	1103.627563	12101.219727	1283.393677	1.634595
619.337463	1142.311401	11989.718750	1240.158813	0.902035
619.674194	1162.791138	11960.137695	1322.077637	1.475237
620.010986	1171.893188	11828.157227	1285.669312	1.067692
620.347778	1033.086426	11966.963867	1317.526489	2.601457
620.684387	1110.454102	11878.218750	1267.465088	1.458158
621.020996	1101.352051	11534.615234	1349.383789	2.377317
621.357605	1117.280762	11923.728516	1299.322388	1.684565
621.694214	1087.698975	11439.042969	1301.597900	2.066388
622.030579	1094.525513	11439.042969	1246.985352	1.473823
622.367065	1128.658325	11484.553711	1260.638550	1.274445
622.703430	1144.586914	11468.625000	1242.434326	0.947763
623.039795	1051.290649	11532.339844	1265.189575	2.040816
623.376160	1035.361938	11386.706055	1278.842651	2.352165
623.712402	1099.076538	11461.797852	1210.577026	1.075977
624.048645	1151.413574	11464.074219	1249.260864	0.948807
624.384766	1115.005249	11131.847656	1297.046875	1.817355
624.720886	1019.433350	11361.675781	1315.250977	2.860285
625.057007	1094.525513	11361.675781	1242.434326	1.440602
625.392944	1153.689087	11429.941406	1347.108276	1.882196
625.729004	1096.801025	11468.625000	1303.873413	1.996490
626.064941	1140.035889	11618.809570	1328.904175	1.802389
626.400818	1151.413574	11903.249023	1372.139038	2.052910
626.736633	1110.454102	12087.566406	1310.699951	1.824212
627.072449	1128.658325	12210.444336	1342.557251	1.930185
627.408264	1085.423462	12503.986328	1331.179688	2.152252
627.743896	1028.535400	12376.557617	1274.291626	2.165630
628.079590	1142.311401	12613.211914	1326.628662	1.606825
628.415161	1162.791138	12365.179688	1408.547363	2.193784
628.750793	1162.791138	12296.914063	1312.975464	1.348865
629.086365	1151.413574	12055.708984	1294.771362	1.314691
629.421753	1155.964600	11778.095703	1278.842651	1.156812
629.757263	1133.209351	11693.901367	1338.006226	1.939237
630.092651	1146.862427	11607.431641	1281.118164	1.283446
630.427917	1185.546387	11275.206055	1306.148926	1.195308
630.763184	1167.342163	11077.235352	1267.465088	1.010333
631.098511	1144.586914	11245.624023	1301.597900	1.554405
631.433716	1067.219238	10911.122070	1287.944824	2.242257
631.768799	1128.658325	10931.601563	1251.536499	1.253482
632.103943	1142.311401	10745.008789	1226.505737	0.876778
632.438965	1089.974487	10380.925781	1262.914063	1.861376
632.773987	1099.076538	10471.946289	1260.638550	1.723720
633.109070	1087.698975	10606.202148	1315.250977	2.390628
633.443848	1074.045776	10362.721680	1256.087524	1.959825
633.778870	1176.444214	10658.539063	1287.944824	1.175907
634.113708	1194.648438	10704.049805	1312.975464	1.244316
634.448425	1121.831787	10683.570313	1262.914063	1.475488
634.783264	1142.311401	10487.875000	1331.179688	2.020941
635.117859	1119.556274	10547.039063	1249.260864	1.375814
635.452576	1064.943726	10567.518555	1287.944824	2.346744
635.787170	1126.382813	10430.987305	1324.353149	2.127660
636.121704	1089.974487	10253.497070	1262.914063	1.887261
636.456177	1137.760376	10351.343750	1301.597900	1.778217
636.790588	1135.484863	10141.996094	1228.781250	1.035877
637.125122	1069.494751	9987.260742	1290.220337	2.475122
637.459412	1167.342163	9891.688477	1253.812012	0.991133
637.793762	1140.035889	9868.933594	1292.495850	1.746612
638.128052	1099.076538	9443.411133	1251.536499	1.827107
638.462280	1206.026001	9602.698242	1301.597900	1.138212
638.796509	1162.791138	9736.953125	1274.291626	1.300424
639.130615	1124.107300	9520.779297	1210.577026	1.029809
639.464722	1137.760376	9306.879883	1246.985352	1.337047
639.798767	1133.209351	9318.257813	1290.220337	1.918266
640.132751	1160.515625	9482.094727	1281.118164	1.449275
640.466736	1076.321289	9095.256836	1265.189575	2.355279
640.800598	1121.831787	9143.042969	1242.434326	1.503545
641.134521	1071.770264	9088.429688	1244.709839	2.157253
641.468262	1119.556274	9092.981445	1274.291626	1.940638
641.802063	1021.708862	8972.378906	1233.332275	2.661705
642.135803	1117.280762	8954.174805	1221.954712	1.335656
642.469421	1162.791138	8692.489258	1228.781250	0.876398
642.803101	1074.045776	8840.398438	1190.097412	1.494287
643.136658	1119.556274	8753.928711	1278.842651	2.086437
643.470215	1149.138062	8758.479492	1253.812012	1.375598
643.803711	1221.954712	8621.948242	1196.923950	-0.338254
644.137085	1137.760376	8535.478516	1303.873413	2.245463
644.470581	1117.280762	8742.550781	1246.985352	1.700984
644.803833	1103.627563	8464.937500	1206.026001	1.391036
645.137207	1160.515625	8692.489258	1196.923950	0.483384
645.470459	1105.903076	8560.508789	1215.128052	1.465201
645.803589	1128.658325	8585.540039	1253.812012	1.678365
646.136780	1110.454102	8644.703125	1219.679199	1.449714
646.469849	1137.760376	8849.500000	1219.679199	1.062261
646.802979	1140.035889	8642.427734	1299.322388	2.123143
647.135986	1219.679199	8546.856445	1242.434326	0.310558
647.468994	1094.525513	8756.204102	1299.322388	2.673003
647.801941	1167.342163	8706.142578	1269.740601	1.358286
648.134766	1190.097412	8697.040039	1269.740601	1.060927
648.467651	1149.138062	8756.204102	1233.332275	1.106790
648.800354	1071.770264	8699.316406	1253.812012	2.386636
649.133179	1140.035889	8758.479492	1215.128052	0.985663
649.465881	1108.178589	8549.131836	1203.750488	1.284404
649.798462	1101.352051	8715.245117	1249.260864	1.942617
650.131104	1078.596802	8640.152344	1260.638550	2.407464
650.463623	1240.158813	8694.764648	1201.474976	-0.518925
650.796143	1144.586914	8496.794922	1228.781250	1.145157
651.128662	1108.178589	8694.764648	1244.709839	1.799640
651.461060	1144.586914	8617.397461	1292.495850	1.979295
651.793396	1064.943726	8710.693359	1224.230225	2.083334
652.125732	1089.974487	8715.245117	1233.332275	1.880035
652.458008	1076.321289	8599.193359	1201.474976	1.663642
652.790222	1069.494751	8744.826172	1306.148926	3.083309
653.122437	1099.076538	8580.989258	1308.424438	2.798053
653.454529	1144.586914	8628.774414	1203.750488	0.790514
653.786621	1099.076538	8683.387695	1246.985352	1.950194
654.118713	1162.791138	8569.611328	1290.220337	1.720430
654.450623	1096.801025	8590.090820	1272.016113	2.338293
654.782654	1162.791138	8499.070313	1203.750488	0.558312
655.114502	1140.035889	8417.151367	1310.699951	2.345216
655.446350	1201.474976	8351.161133	1178.719727	-0.318269
655.778198	1178.719727	8239.661133	1315.250977	1.933613
656.109863	1124.107300	8262.416016	1262.914063	1.944533
656.441650	1180.995239	8278.344727	1294.771362	1.603079
656.773254	1171.893188	8244.211914	1283.393677	1.576576
657.104919	1140.035889	8205.528320	1224.230225	1.191627
657.436462	1135.484863	8112.231445	1258.363037	1.761253
657.767944	1042.188477	8328.406250	1283.393677	3.310431
658.099548	1044.463989	8362.539063	1215.128052	2.332089
658.430908	1069.494751	8367.089844	1196.923950	1.746181
658.762268	1119.556274	8512.723633	1272.016113	2.062172
659.093628	1037.637451	8867.704102	1333.455200	3.777972
659.424927	1094.525513	9081.603516	1274.291626	2.250712
659.756226	1119.556274	9586.769531	1260.638550	1.666219
660.087341	1092.250000	9743.780273	1310.699951	2.524986
660.418518	1103.627563	9686.891602	1297.046875	2.253447
660.749573	1140.035889	9627.728516	1322.077637	2.144773
661.080627	1140.035889	9527.605469	1278.842651	1.654910
661.411621	1119.556274	9552.636719	1312.975464	2.293577
661.742554	1089.974487	9104.358398	1290.220337	2.498581
662.073547	1099.076538	9038.368164	1262.914063	2.063629
662.404297	1151.413574	8956.450195	1292.495850	1.807580
662.735229	1153.689087	8631.050781	1183.270874	0.395618
663.065979	1094.525513	8378.467773	1322.077637	3.124024
663.396667	1135.484863	8264.691406	1246.985352	1.563996
663.727417	1119.556274	8028.037598	1228.781250	1.581027
664.057922	1151.413574	7952.945313	1276.567139	1.840079
664.388611	1124.107300	7927.914551	1274.291626	2.207357
664.719116	1133.209351	7805.036133	1256.087524	1.841747
665.049622	1146.862427	7661.678711	1249.260864	1.571778
665.380005	1083.147949	7659.402832	1253.812012	2.595156
665.710388	1053.566162	7545.626953	1235.607788	2.804065
666.040771	1115.005249	7679.882813	1260.638550	2.218370
666.371033	1149.138062	7538.800293	1269.740601	1.887463
666.701294	1171.893188	7520.596191	1196.923950	0.394266
667.031555	1130.933838	7627.545898	1281.118164	2.311733
667.361633	1128.658325	7345.381348	1292.495850	2.635432
667.691772	1149.138062	7516.045410	1192.372925	0.679056
668.021790	1064.943726	7616.167969	1219.679199	2.361932
668.351807	1133.209351	7477.361328	1224.230225	1.434721
668.681763	1130.933838	7531.973633	1210.577026	1.244223
669.011719	1126.382813	7493.290039	1206.026001	1.250893
669.341614	1112.729614	7720.842285	1251.536499	2.100553
669.671387	1130.933838	7634.372070	1215.128052	1.294611
670.001221	1142.311401	7593.413086	1253.812012	1.728396
670.330933	1101.352051	7486.463379	1260.638550	2.494655
670.660583	1117.280762	7634.372070	1249.260864	2.025138
670.990173	1146.862427	7468.259277	1196.923950	0.791938
671.319763	1146.862427	7399.993652	1240.158813	1.491995
671.649292	1146.862427	7297.595215	1224.230225	1.257863
671.978821	1071.770264	7577.484375	1244.709839	2.658272
672.308289	1110.454102	7377.238281	1183.270874	1.161948
672.637695	1149.138062	7231.604980	1226.505737	1.271979
672.966980	1092.250000	7202.023438	1276.567139	3.016759
673.296326	1194.648438	7067.767578	1237.883301	0.736148
673.625610	1087.698975	7242.982910	1303.873413	3.512014
673.954773	1110.454102	7076.869629	1176.444214	1.106026
674.283936	1187.821899	7154.237305	1194.648438	0.114416
674.613037	1126.382813	6958.542480	1183.270874	0.975420
674.942078	1121.831787	6901.654785	1124.107300	0.039370
675.271118	1108.178589	7074.594238	1212.852539	1.754386
675.600098	1096.801025	6992.675293	1217.403687	2.045543
675.928955	1135.484863	7095.073730	1219.679199	1.412754
676.257813	1155.964600	6935.787598	1133.209351	-0.393701
676.586670	1096.801025	6988.124512	1253.812012	2.665123
676.915466	1110.454102	6922.134277	1262.914063	2.623337
677.244141	1203.750488	6897.103516	1242.434326	0.679456
677.572876	1103.627563	6862.970703	1221.954712	2.054525
677.901489	1110.454102	6892.552734	1176.444214	1.141283
678.230042	1087.698975	6906.205566	1192.372925	1.798983
678.558594	1064.943726	7022.257324	1242.434326	2.979373
678.887085	1092.250000	7133.757813	1240.158813	2.448210
679.215515	1092.250000	7067.767578	1210.577026	1.980197
679.543945	1137.760376	7231.604980	1283.393677	2.389843
679.872253	1140.035889	7270.289063	1256.087524	1.893097
680.200562	1064.943726	7279.391113	1178.719727	1.830831
680.528809	1174.168701	7404.544922	1151.413574	-0.365229
680.856995	1140.035889	7670.780762	1267.465088	1.951220
681.185120	1162.791138	7668.504883	1233.332275	1.084295
681.513306	1112.729614	7827.791504	1221.954712	1.626569
681.841309	1064.943726	7784.556641	1251.536499	2.776838
682.169373	1180.995239	7531.973633	1246.985352	1.039054
682.497314	1194.648438	7661.678711	1260.638550	1.020408
682.825134	1128.658325	7593.413086	1253.812012	1.935939
683.153076	1101.352051	7388.616211	1272.016113	2.714441
683.480896	1087.698975	7322.625977	1283.393677	3.138685
683.808655	1169.617676	7247.533691	1228.781250	0.973419
684.136414	1062.668213	7038.186035	1246.985352	3.084538
684.464050	1121.831787	7022.257324	1165.066650	0.732741
684.791626	1037.637451	6765.123535	1226.505737	3.297577
685.119263	1069.494751	6853.868652	1210.577026	2.439024
685.446838	1167.342163	6614.938965	1176.444214	0.167084
685.774292	1101.352051	6610.387695	1199.199463	1.776126
686.101685	1149.138062	6576.254883	1190.097412	0.754717
686.429077	1137.760376	6662.725098	1267.465088	2.347611
686.756348	1176.444214	6539.846680	1146.862427	-0.551549
687.083679	1069.494751	6373.733887	1153.689087	1.587303
687.410950	1101.352051	6412.417480	1155.964600	1.028279
687.738159	1212.852539	6655.898438	1174.168701	-0.710702
688.065308	1094.525513	6592.183594	1208.301514	2.069536
688.392395	1185.546387	6628.592285	1140.035889	-0.836122
688.719421	1160.515625	6696.857910	1237.883301	1.397451
689.046448	1178.719727	6635.418457	1206.026001	0.500417
689.373413	1158.240112	6558.050781	1242.434326	1.559207
689.700317	1103.627563	6535.295898	1165.066650	1.131127
690.027100	1142.311401	6348.703125	1260.638550	2.272728
690.353943	1117.280762	6498.887207	1183.270874	1.226216
690.680725	1103.627563	6462.479004	1231.056763	2.377920
691.007446	1108.178589	6205.345215	1160.515625	1.026787
691.334106	1069.494751	6173.487793	1210.577026	2.764155
691.660645	1108.178589	6096.120117	1162.791138	1.094892
691.987244	1151.413574	6139.354980	1221.954712	1.414233
692.313721	1062.668213	6034.681152	1162.791138	2.013730
692.640259	1096.801025	5907.251953	1190.097412	1.939452
692.966675	1103.627563	5875.394531	1242.434326	2.908917
693.293030	1117.280762	5934.558105	1162.791138	0.944732
693.619324	1126.382813	5850.363770	1215.128052	1.878611
693.945618	1133.209351	5820.782227	1144.586914	0.242718
694.271851	1099.076538	5750.241211	1208.301514	2.348336
694.598083	1121.831787	5631.914063	1133.209351	0.252270
694.924194	1128.658325	5759.343262	1180.995239	1.130220
695.250244	1169.617676	5804.853516	1212.852539	0.932744
695.576294	1101.352051	5802.578125	1183.270874	1.742499
695.902283	1121.831787	5641.016113	1165.066650	0.956696
696.228210	1101.352051	5666.046875	1146.862427	0.997008
696.554138	1096.801025	5825.333008	1169.617676	1.539942
696.879944	1108.178589	5745.689941	1196.923950	1.913642
697.205750	1071.770264	5882.221191	1196.923950	2.601704
697.531433	1044.463989	5923.180664	1190.097412	2.985076
697.857178	1049.015137	5886.772461	1219.679199	3.527752
698.182739	1130.933838	6057.436523	1167.342163	0.739030
698.508423	1092.250000	6464.754395	1224.230225	2.456587
698.833984	1126.382813	6742.368164	1221.954712	1.701783
699.159485	1103.627563	6969.920410	1231.056763	2.172227
699.484924	1160.515625	7124.655762	1187.821899	0.457841
699.810303	1078.596802	7279.391113	1199.199463	1.944955
700.135681	1110.454102	7058.665527	1196.923950	1.453712
700.460999	1183.270874	7129.206543	1117.280762	-1.109836
700.786255	1165.066650	7008.604004	1219.679199	0.934580
701.111450	1192.372925	6826.562500	1249.260864	1.009692
701.436646	1085.423462	6796.980469	1185.546387	1.752988
701.761719	1137.760376	6416.968750	1121.831787	-0.301723
702.086792	1149.138062	6123.426270	1192.372925	0.869167
702.411865	1101.352051	6039.232422	1165.066650	1.290323
702.736816	1140.035889	5848.088379	1196.923950	1.208314
703.061646	1105.903076	5752.516602	1237.883301	2.840353
703.386536	1105.903076	5518.138184	1224.230225	2.681796
703.711365	1137.760376	5540.893066	1144.586914	0.155038
704.036194	1074.045776	5404.361816	1185.546387	2.574884
704.360901	1165.066650	5286.034668	1269.740601	2.540033
704.685547	1108.178589	5142.677246	1235.607788	3.158489
705.010132	1146.862427	5124.472656	1135.484863	-0.286040
705.334717	1042.188477	5097.166504	1144.586914	2.525253
705.659302	1092.250000	5060.758301	1206.026001	2.866971
705.983765	1101.352051	5081.237793	1171.893188	1.772441
706.308228	1108.178589	5017.523438	1190.097412	2.095462
706.632568	1165.066650	5063.033691	1144.586914	-0.525395
706.956909	1046.739624	5056.207031	1101.352051	1.362087
707.281189	1099.076538	5049.380859	1151.413574	1.324886
707.605408	1128.658325	4983.390625	1140.035889	0.295158
707.929626	1151.413574	4937.880371	1187.821899	0.961538
708.253784	1149.138062	5138.125977	1155.964600	0.171135
708.577820	1137.760376	4960.635254	1130.933838	-0.178571
708.901855	1094.525513	4969.737305	1121.831787	0.704639
709.225830	1076.321289	5022.074219	1140.035889	1.614764
709.549805	1158.240112	5058.482910	1160.515625	0.058343
709.873718	1174.168701	5035.727539	1174.168701	0.000000
710.197510	1117.280762	5088.064453	1171.893188	1.375356
710.521362	1110.454102	5088.064453	1224.230225	2.860414
710.845093	1158.240112	5279.208496	1199.199463	0.993925
711.168701	1174.168701	5304.238770	1233.332275	1.432508
711.492432	1153.689087	5392.984375	1187.821899	0.805153
711.816040	1167.342163	5443.045898	1226.505737	1.383716
712.139587	1146.862427	5370.229004	1203.750488	1.346984
712.463074	1158.240112	5322.443359	1137.760376	-0.491804
712.786499	1146.862427	5440.770020	1171.893188	0.582937
713.109924	1194.648438	5365.678223	1162.791138	-0.763775
713.433350	1103.627563	5299.687988	1167.342163	1.518439
713.756592	1085.423462	5197.289551	1199.199463	2.767016
714.079834	1085.423462	5179.085449	1210.577026	3.057252
714.403015	1151.413574	5078.962402	1165.066650	0.347623
714.726196	1126.382813	5099.441895	1203.750488	1.947307
715.049255	1051.290649	5147.228027	1144.586914	2.277776
715.372375	1176.444214	5038.002930	1174.168701	-0.058927
715.695435	1155.964600	5106.268555	1206.026001	1.267280
716.018311	1126.382813	5001.594727	1165.066650	0.998238
716.341248	1140.035889	5103.993164	1155.964600	0.401839
716.664063	1096.801025	5154.054688	1160.515625	1.570387
716.987000	1178.719727	5042.554199	1262.914063	2.179036
717.309692	1165.066650	4865.063477	1099.076538	-1.783518
717.632385	1153.689087	4972.013184	1228.781250	1.966626
717.955078	1064.943726	4956.084473	1231.056763	4.269006
718.277649	1135.484863	4776.318359	1162.791138	0.750001
718.600220	1130.933838	4751.287598	1178.719727	1.319923
718.922791	1194.648438	4803.624512	1142.311401	-1.450191
719.245300	1183.270874	4610.205078	1155.964600	-0.796814
719.567688	1119.556274	4553.316895	1074.045776	-1.325384
719.890015	1105.903076	4532.837402	1112.729614	0.199202
720.212341	1119.556274	4505.531250	1151.413574	0.940860
720.534607	1185.546387	4341.693848	1171.893188	-0.432591
720.856873	1115.005249	4246.121582	1158.240112	1.380813
721.179016	1101.352051	4257.499512	1149.138062	1.514061
721.501160	1085.423462	4223.366699	1169.617676	2.683102
721.823242	1135.484863	4277.979004	1171.893188	1.158581
722.145264	1069.494751	4189.233887	1155.964600	2.771701
722.467224	1174.168701	4227.917480	1192.372925	0.596127
722.789185	1115.005249	4205.162598	1169.617676	1.767303
723.111023	1117.280762	4105.039551	1117.280762	0.000000
723.432861	1099.076538	4091.386475	1206.026001	3.574144
723.754578	1099.076538	4080.008789	1224.230225	4.198475
724.076294	1140.035889	4041.324951	1228.781250	3.058825
724.397949	1089.974487	3948.028564	1235.607788	5.095540
724.719666	1099.076538	4132.345703	1265.189575	5.476370
725.041260	1135.484863	4093.661865	1155.964600	0.692309
725.362732	1142.311401	4105.039551	1149.138062	0.230418
725.684265	1103.627563	4102.764160	1185.546387	2.731413
726.005676	1149.138062	4086.835449	1208.301514	2.013940
726.327087	1074.045776	4234.744141	1162.791138	2.807777
726.648438	1049.015137	4045.875977	1228.781250	5.998480
726.969666	1112.729614	4029.947266	1149.138062	1.248054
727.290894	1171.893188	4234.744141	1180.995239	0.297176
727.612061	1115.005249	4105.039551	1210.577026	3.196344
727.933228	1176.444214	4227.917480	1203.750488	0.894855
728.254395	1101.352051	4218.815430	1178.719727	2.481751
728.575378	1190.097412	4221.091309	1194.648438	0.150150
728.896301	1105.903076	4373.550781	1160.515625	1.671311
729.217285	1101.352051	4446.367676	1215.128052	3.401359
729.538147	1158.240112	4444.092285	1224.230225	2.008311
729.858948	1110.454102	4250.672852	1160.515625	1.594205
730.179810	1165.066650	4287.081055	1185.546387	0.655978
730.500549	1067.219238	4175.580566	1201.474976	4.319180
730.821228	1074.045776	4314.387207	1169.617676	2.949439
731.141846	1135.484863	4414.510254	1215.128052	2.428868
731.462402	1049.015137	4362.173340	1199.199463	4.532966
731.782898	1210.577026	4425.888184	1183.270874	-0.849254
732.103455	1140.035889	4510.082031	1174.168701	1.012829
732.423889	1137.760376	4412.234863	1231.056763	2.849202
732.744263	1094.525513	4453.194336	1221.954712	3.794039
733.064636	1151.413574	4434.990234	1251.536499	3.049203
733.384888	1069.494751	4364.448730	1140.035889	2.140884
733.705200	1094.525513	4357.622559	1278.842651	5.648533
734.025330	1217.403687	4432.714355	1174.168701	-1.344660
734.345520	1101.352051	4382.652832	1199.199463	2.981970
734.665527	1058.117188	4341.693848	1244.709839	5.682604
734.985596	1137.760376	4362.173340	1237.883301	3.105152
735.305542	1044.463989	4214.264648	1196.923950	4.809765
735.625549	1051.290649	4080.008789	1226.505737	5.785123
735.945435	1108.178589	4341.693848	1235.607788	3.940888
736.265259	1119.556274	4143.723145	1244.709839	4.138448
736.585083	1151.413574	3982.161377	1149.138062	-0.080386
736.904785	1058.117188	4025.396240	1240.158813	6.134968
737.224426	1151.413574	3963.957275	1185.546387	1.213592
737.544128	1110.454102	3959.406250	1196.923950	3.035146
737.863708	1087.698975	4016.294189	1128.658325	1.398601
738.183289	1103.627563	3861.558838	1196.923950	3.382840
738.502808	1137.760376	4068.631104	1196.923950	2.018635
738.822205	1151.413574	4011.743164	1176.444214	0.875096
739.141541	1133.209351	3888.864990	1287.944824	5.615196
739.460938	1178.719727	4107.314941	1194.648438	0.543903
739.780212	1094.525513	4136.896973	1167.342163	2.393417
740.099426	1219.679199	4130.070313	1171.893188	-1.641910
740.418640	1119.556274	4004.916504	1201.474976	2.839115
740.737793	1083.147949	4045.875977	1235.607788	5.145927
741.056885	1089.974487	4020.845215	1199.199463	3.726707
741.375977	1101.352051	4109.590332	1192.372925	3.025720
741.694946	1151.413574	4155.101074	1262.914063	3.712120
742.013855	1160.515625	3988.988037	1260.638550	3.539823
742.332703	1117.280762	4016.294189	1194.648438	2.668759
742.651550	1171.893188	3827.426025	1219.679199	1.799489
742.970398	1112.729614	3745.507324	1276.567139	6.222991
743.289124	1119.556274	3850.181152	1249.260864	4.749996
743.607788	1180.995239	3684.068115	1187.821899	0.272731
743.926453	1083.147949	3829.701416	1231.056763	5.385252
744.245056	1194.648438	3788.742188	1165.066650	-1.140352
744.563599	1162.791138	3686.343750	1187.821899	0.991886
744.882141	1108.178589	3702.272461	1228.781250	4.649125
745.200500	1044.463989	3624.904541	1187.821899	5.555560
745.518860	1176.444214	3636.282227	1240.158813	2.590195
745.837219	1133.209351	3615.802490	1215.128052	3.299723
746.155518	1069.494751	3704.547852	1242.434326	6.563039
746.473755	1155.964600	3583.945313	1203.750488	1.968133
746.791992	1155.964600	3538.434814	1269.740601	4.775548
747.110107	1110.454102	3579.394287	1233.332275	4.976960
747.428162	1140.035889	3581.669678	1267.465088	5.219014
747.746216	1126.382813	3554.363525	1301.597900	7.216494
748.064148	1080.872437	3579.394287	1253.812012	6.921675
748.382080	1124.107300	3731.854004	1208.301514	3.228620
748.700073	1174.168701	3611.251465	1272.016113	4.014940
749.017822	1128.658325	3643.108887	1262.914063	5.339366
749.335632	1155.964600	3577.118652	1342.557251	7.706765
749.653320	1110.454102	3622.629150	1265.189575	6.159422
749.971008	1203.750488	3684.068115	1333.455200	5.229359
750.288696	1144.586914	3640.833252	1210.577026	2.643574
750.606262	1112.729614	3529.332764	1278.842651	6.873824
750.923828	1121.831787	3656.761963	1308.424438	7.360859
751.241272	1064.943726	3611.251465	1251.536499	7.327974
751.558716	1149.138062	3558.914551	1294.771362	6.043437
751.876038	1137.760376	3492.924316	1199.199463	2.608697
752.193481	1135.484863	3599.874023	1281.118164	5.909509
752.510681	1096.801025	3508.853027	1262.914063	6.886793
752.827942	1126.382813	3422.383301	1292.495850	7.234887
753.145081	1083.147949	3602.149414	1324.353149	9.575429
753.462219	1089.974487	3574.843262	1344.832764	10.256409
753.779297	1162.791138	3472.444824	1283.393677	5.221672
754.096375	1167.342163	3474.720215	1290.220337	5.325446
754.413330	1196.923950	3458.791504	1287.944824	4.024147
754.730286	1119.556274	3522.506104	1315.250977	8.143937
755.047119	1124.107300	3588.496338	1358.485962	9.510619
755.363892	1101.352051	3465.618164	1353.934937	10.683352
755.680725	1196.923950	3474.720215	1401.720825	8.991009
755.997498	1144.586914	3385.974854	1431.302612	12.791882
756.314148	1180.995239	3397.352539	1385.792114	9.240246
756.630737	1226.505737	3345.015625	1335.730713	5.155746
756.947327	1169.617676	3376.872803	1328.904175	7.216497
757.263855	1119.556274	3440.587402	1365.312500	10.588234
757.580261	1108.178589	3442.863037	1333.455200	9.649124
757.896729	1206.026001	3315.433838	1378.965576	8.198490
758.213074	1128.658325	3411.005615	1438.129150	13.559323
758.529419	1124.107300	3472.444824	1426.751587	12.887598
758.845642	1144.586914	3449.689453	1433.578125	12.537022
759.161865	1076.321289	3442.863037	1399.445313	13.653849
759.478149	1140.035889	3470.169189	1483.639526	14.746094
759.794189	1142.311401	3549.812500	1454.057739	12.948960
760.110229	1130.933838	3602.149414	1415.373901	11.510127
760.426270	1074.045776	3638.557861	1510.945801	17.036379
760.742249	1196.923950	3479.271240	1460.884399	11.565307
761.058105	1137.760376	3659.037354	1501.843750	14.440436
761.374023	1083.147949	3517.955078	1390.343262	12.616823
761.689819	1087.698975	3513.404053	1545.078613	18.855534
762.005554	1101.352051	3599.874023	1454.057739	14.116573
762.321289	1121.831787	3486.097900	1599.691162	20.211742
762.636902	1046.739624	3593.047363	1586.037964	21.179623
762.952515	1108.178589	3622.629150	1397.169800	11.493215
763.268127	1112.729614	3661.312988	1583.762451	18.482143
763.583618	1101.352051	3740.956299	1590.588989	18.534481
763.899048	1105.903076	4080.008789	1765.804199	22.188221
764.214478	1140.035889	4687.572754	1738.497925	16.869791
764.529785	1074.045776	4912.849609	1758.977539	17.842323
764.845093	1117.280762	5012.972168	1831.794189	18.341120
765.160400	1190.097412	4862.788086	1904.610962	19.454771
765.475586	1055.841675	4726.256836	1863.651489	22.008678
765.790771	1069.494751	4705.776855	1836.345337	21.088863
766.105835	1128.658325	4453.194336	1804.488037	20.328541
766.420837	1103.627563	4357.622559	1761.253052	20.209787
766.735840	1133.209351	4205.162598	1758.977539	20.370369
767.050842	1108.178589	4016.294189	1738.497925	21.674494
767.365662	1151.413574	3950.304199	1688.436401	19.186989
767.680542	1078.596802	3688.619141	1697.538574	23.714041
767.995300	1108.178589	3688.619141	1692.987427	22.663141
768.309998	1110.454102	3636.282227	1626.997314	20.450449
768.624817	1103.627563	3649.935303	1672.507813	22.341379
768.939392	1192.372925	3390.525879	1611.068726	19.047621
769.254028	1080.872437	3627.180176	1665.681274	22.966936
769.568481	1135.484863	3492.924316	1690.711914	23.552124
769.882935	1092.250000	3517.955078	1633.823975	22.326456
770.197388	1099.076538	3397.352539	1695.262939	25.940594
770.511841	1115.005249	3351.842041	1708.916138	26.551373
770.826172	1096.801025	3306.331787	1611.068726	23.274973
771.140442	1023.984375	3299.505127	1656.579102	27.799997
771.454651	1117.280762	3190.280273	1520.047852	19.429193
771.768860	1119.556274	3215.310791	1570.109375	21.498373
772.082886	1101.352051	3267.647949	1588.313477	22.478989
772.397034	1092.250000	3283.576416	1608.793213	23.572170
772.711060	1060.392700	3197.106689	1576.935913	24.174656
773.025024	1058.117188	3258.545898	1611.068726	25.129265
773.338928	1128.658325	3244.892578	1697.538574	26.881721
773.652771	1140.035889	3149.320801	1606.517700	23.216311
773.966614	1142.311401	3008.238525	1549.629639	21.829268
774.280457	1092.250000	3021.891602	1629.272949	27.830191
774.594116	1121.831787	3019.616211	1665.681274	28.657074
774.907776	1130.933838	3003.687500	1586.037964	24.301334
775.221375	1112.729614	3026.442627	1524.598877	21.521997
775.534912	1078.596802	2978.656738	1608.793213	27.904194
775.848450	1169.617676	3083.330566	1606.517700	22.829967
776.161926	1112.729614	3042.371338	1642.926025	27.476418
776.475342	1115.005249	3035.544678	1565.558350	23.459717
776.788696	1101.352051	2910.391113	1702.089600	33.207550
777.101990	1049.015137	3008.238525	1699.814087	33.217190
777.415283	1121.831787	3065.126465	1608.793213	25.058548
777.728516	1167.342163	2937.697266	1565.558350	22.493576
778.041626	1174.168701	2951.350586	1604.242188	24.199745
778.354736	1158.240112	2851.227539	1531.425537	22.043013
778.667725	1053.566162	2967.279053	1576.935913	27.348394
778.980774	1153.689087	2953.625977	1595.140137	24.525919
779.293640	1151.413574	3021.891602	1549.629639	21.289534
779.606567	1128.658325	2949.074951	1597.415649	25.750002
779.919434	1101.352051	2873.982666	1608.793213	28.626448
780.232239	1101.352051	2889.911377	1624.721802	29.262085
780.544983	1142.311401	2921.768799	1645.201538	28.260870
780.857666	1096.801025	2880.809326	1615.619751	29.081633
781.170227	1133.209351	2819.370361	1542.803101	24.291496
781.482849	1078.596802	2801.166016	1526.874512	26.023785
781.795410	1117.280762	2705.594238	1617.895264	31.518621
782.107910	1108.178589	2921.768799	1667.956787	30.865749
782.420288	1167.342163	2905.840088	1508.670288	19.633509
782.732666	1151.413574	2719.247314	1545.078613	25.108850
783.044983	1210.577026	2712.420898	1670.232300	30.606062
783.357300	1105.903076	2753.380127	1604.242188	30.248623
783.669495	1135.484863	2682.839111	1542.803101	26.323528
783.981689	1121.831787	2712.420898	1576.935913	28.612299
784.293762	1233.332275	2737.451416	1542.803101	20.574888
784.605835	1099.076538	2726.073975	1590.588989	30.209787
784.917908	1162.791138	2696.492188	1531.425537	24.035610
785.229858	1167.342163	2587.267090	1563.282837	27.884621
785.541748	1185.546387	2712.420898	1465.435425	18.330847
785.853577	1140.035889	2635.052979	1588.313477	29.984779
786.165405	1146.862427	2616.848877	1652.028076	34.365326
786.477173	1074.045776	2548.583252	1551.905151	32.407410
786.788879	1085.423462	2696.492188	1572.384888	30.225986
787.100525	1115.005249	2676.012451	1501.843750	24.781340
787.412109	1135.484863	2641.879639	1456.333252	21.299091
787.723694	1126.382813	2653.257324	1599.691162	30.998510
788.035156	1074.045776	2660.083740	1570.109375	31.276905
788.346558	1103.627563	2732.900391	1597.415649	30.307268
788.658081	1128.658325	2646.430664	1520.047852	25.787104
788.969360	1096.801025	2776.135498	1611.068726	30.623304
789.280640	1128.658325	2851.227539	1656.579102	30.647289
789.591919	1135.484863	2828.472412	1645.201538	30.107527
789.903076	1096.801025	2867.156250	1702.089600	34.190231
790.214172	1133.209351	2958.177002	1702.089600	31.172073
790.525269	1049.015137	2807.992676	1570.109375	29.624838
790.836365	1108.178589	2666.910400	1567.833862	29.489054
791.147339	1096.801025	2764.757813	1563.282837	27.967260
791.458191	1137.760376	2598.644775	1601.966675	31.775703
791.769104	1124.107300	2569.062988	1604.242188	33.228348
792.079895	1083.147949	2553.134277	1531.425537	30.495358
792.390686	1210.577026	2553.134277	1588.313477	28.135593
792.701416	1199.199463	2580.440674	1592.864502	28.500818
793.012085	1169.617676	2537.205811	1574.660400	29.617304
793.322693	1142.311401	2430.256104	1479.088501	26.148413
793.633240	1130.933838	2498.521729	1522.323364	28.618967
793.943787	1194.648438	2471.215576	1551.905151	27.985737
794.254272	1153.689087	2507.624023	1451.782227	22.016800
794.564636	1137.760376	2503.072998	1472.261963	24.500000
794.875000	1074.045776	2525.828125	1476.812988	27.742947
795.185303	1153.689087	2425.705078	1481.364014	25.760284
795.495544	1089.974487	2400.674561	1474.537476	29.340273
795.805786	1103.627563	2473.491211	1488.190552	28.073086
796.115906	1149.138062	2516.726074	1535.976563	28.286186
796.426025	1105.903076	2446.184814	1554.180664	33.446518
796.736023	1071.770264	2635.052979	1504.119263	27.656483
797.045959	1078.596802	2682.839111	1524.598877	27.801416
797.355896	1071.770264	2528.103516	1622.446289	37.812500
797.665833	1121.831787	2616.848877	1574.660400	30.289192
797.975708	1169.617676	2625.950928	1622.446289	31.093750
798.285461	1110.454102	2482.593262	1556.456177	32.504143
798.595154	1092.250000	2425.705078	1483.639526	29.351534
798.904846	1094.525513	2471.215576	1551.905151	33.223137
799.214478	1128.658325	2425.705078	1510.945801	29.473684
799.524109	1210.577026	2450.735840	1522.323364	25.137613
799.833557	1128.658325	2446.184814	1463.159912	25.388605
800.143005	1185.546387	2441.633789	1531.425537	27.536232
800.452393	1108.178589	2418.878662	1551.905151	33.854164
800.761780	1135.484863	2407.500977	1554.180664	32.915920
801.071106	1174.168701	2471.215576	1529.150024	27.368427
801.380371	1076.321289	2393.847900	1506.394775	32.642490
801.689575	1137.760376	2346.062012	1465.435425	27.118647
801.998718	1117.280762	2493.970703	1392.618774	20.000002
802.307800	1169.617676	2311.929199	1535.976563	32.071712
802.616882	1108.178589	2380.194824	1438.129150	25.939178
802.925903	1128.658325	2389.296875	1481.364014	27.978336
803.234863	1174.168701	2346.062012	1472.261963	25.436893
803.543701	1099.076538	2377.919189	1479.088501	29.715303
803.852539	1108.178589	2316.480225	1492.741699	31.826748
804.161316	1062.668213	2275.520752	1483.639526	34.709190
804.470032	1117.280762	2264.143311	1417.649414	26.190466
804.778809	1119.556274	2257.316650	1483.639526	31.999994
805.087341	1133.209351	2361.990479	1444.955688	25.370371
805.395935	1192.372925	2361.990479	1433.578125	20.622570
805.704468	1060.392700	2412.052002	1538.252075	35.353539
806.012939	1101.352051	2261.867676	1497.292725	34.117653
806.321350	1183.270874	2316.480225	1506.394775	28.514051
806.629761	1117.280762	2359.715088	1520.047852	32.417576
806.938049	1099.076538	2380.194824	1483.639526	30.017757
807.246277	1101.352051	2402.949951	1424.476074	24.825180
807.554504	1069.494751	2270.969727	1492.741699	35.227280
807.862671	1135.484863	2325.582275	1524.598877	32.695980
808.170715	1165.066650	2421.154053	1522.323364	28.442026
808.478821	1169.617676	2302.827148	1520.047852	30.923689
808.786804	1137.760376	2398.398926	1490.466064	27.978336
809.094727	1140.035889	2402.949951	1438.129150	23.603605
809.402649	1146.862427	2346.062012	1488.190552	28.462996
809.710510	1146.862427	2316.480225	1413.098389	22.762646
810.018311	1176.444214	2148.091553	1454.057739	28.571428
810.326050	1167.342163	2200.428711	1454.057739	27.753296
810.633667	1153.689087	2209.530762	1540.527588	36.637928
810.941345	1142.311401	2236.836914	1449.506714	28.066528
811.248901	1119.556274	2161.744873	1472.261963	33.842789
811.556396	1242.434326	2261.867676	1451.782227	20.535713
811.863892	1153.689087	2189.051025	1472.261963	30.769228
812.171326	1094.525513	2123.060791	1429.027100	32.522129
812.478699	1058.117188	2204.979736	1456.333252	34.722214
812.786011	1099.076538	2207.255127	1451.782227	31.827513
813.093262	1194.648438	2150.367188	1442.680176	25.952377
813.400391	1080.872437	2111.683350	1374.414551	28.476814
813.707642	1135.484863	2209.530762	1385.792114	23.305080
814.014709	1133.209351	2118.509766	1342.557251	21.247114
814.321716	1126.382813	2179.948975	1349.383789	21.166300
814.628723	1119.556274	2127.612061	1397.169800	27.539499
814.935669	1071.770264	2152.642578	1460.884399	36.000008
815.242554	1133.209351	2111.683350	1369.863525	24.186047
815.549438	1089.974487	2152.642578	1372.139038	26.552464
815.856201	1174.168701	2082.101563	1390.343262	23.809532
816.162964	1055.841675	2093.479248	1454.057739	38.377182
816.469604	1167.342163	2136.714111	1449.506714	29.107975
816.776184	1158.240112	2113.958740	1431.302612	28.571432
817.082825	1119.556274	2166.295898	1363.036987	23.260866
817.389343	1192.372925	2166.295898	1435.853638	24.999996
817.695801	1074.045776	2072.999512	1401.720825	32.801823
818.002197	1080.872437	2225.459229	1447.231201	32.007950
818.308533	1124.107300	2170.846924	1433.578125	29.565216
818.614868	1135.484863	2138.989502	1456.333252	31.972786
818.921143	1210.577026	2207.255127	1435.853638	22.602745
819.227356	1128.658325	2195.877686	1424.476074	27.718552
819.533447	1080.872437	2218.632813	1479.088501	34.999992
819.839539	1110.454102	2314.204590	1440.404663	27.410212
820.145569	1099.076538	2407.500977	1485.915039	29.565216
820.451538	1128.658325	2387.021240	1517.772339	30.922241
820.757568	1069.494751	2532.654541	1474.537476	27.682741
821.063416	1121.831787	2678.288086	1563.282837	28.362574
821.369263	1130.933838	2819.370361	1579.211426	26.549864
821.675049	1140.035889	2764.757813	1645.201538	31.092438
821.980713	1103.627563	3033.269287	1629.272949	27.240568
822.286438	1130.933838	3308.607178	1822.692139	31.765936
822.592102	983.024963	4059.529053	2029.764526	34.023666
822.897583	1128.658325	5579.577148	2516.726074	31.186094
823.203125	1142.311401	8073.547852	3331.362549	31.582407
823.508545	1085.423462	9791.566406	3900.242676	32.331417
823.813965	1165.066650	10553.865234	4102.764160	31.289387
824.119263	1171.893188	9673.239258	3800.119629	30.915419
824.424622	1096.801025	8196.425781	3374.597412	32.083332
824.729858	1155.964600	6963.093750	2994.585449	31.661444
825.035095	1121.831787	6105.222168	2680.563477	31.278538
825.340149	1069.494751	5529.515625	2528.103516	32.704079
825.645264	1151.413574	4956.084473	2343.786377	31.339710
825.950256	1105.903076	4667.093262	2252.765625	32.204472
826.255310	1171.893188	4225.642090	2066.172852	29.284649
826.560242	1171.893188	4059.529053	2027.489014	29.629631
826.865112	1062.668213	3932.099854	1906.886475	29.421097
827.169922	1103.627563	3765.986816	1966.049927	32.393162
827.474670	1092.250000	3836.528076	1929.641602	30.514095
827.779419	1233.332275	4273.428223	2123.060791	29.266462
828.084045	1060.392700	4735.358887	2257.316650	32.569656
828.388672	1149.138062	5229.146973	2291.449463	27.997768
828.693176	1169.617676	5258.728516	2352.888428	28.937117
828.997681	1112.729614	4815.001953	2216.357178	29.809464
829.302124	1208.301514	4077.733398	1991.080688	27.279936
829.606567	1096.801025	3750.058350	1893.233276	30.017151
829.910828	1094.525513	3502.026611	1849.998413	31.379963
830.215149	1096.801025	3183.453613	1838.620850	35.550709
830.519348	1162.791138	3033.269287	1772.630737	32.603405
830.823547	1149.138062	2858.054199	1690.711914	31.691072
831.127686	1144.586914	2691.941162	1677.058838	34.411766
831.431763	1067.219238	2603.195801	1642.926025	37.481483
831.735779	1060.392700	2493.970703	1508.670288	31.269842
832.039734	1115.005249	2396.123291	1561.007324	34.813503
832.343628	1119.556274	2393.847900	1456.333252	26.428564
832.647461	1112.729614	2357.439453	1538.252075	34.186478
832.951233	1037.637451	2389.296875	1431.302612	29.124582
833.255127	1151.413574	2387.021240	1410.822876	20.994473
833.558777	1133.209351	2348.337402	1406.271851	22.471912
833.862366	1124.107300	2391.572266	1506.394775	30.161581
834.165955	1119.556274	2619.124512	1633.823975	34.294384
834.469482	1146.862427	3015.064941	1679.334351	28.501831
834.773010	1187.821899	3431.485352	1836.345337	28.904665
835.076416	1176.444214	3659.037354	1920.539551	29.972504
835.379822	1210.577026	3643.108887	1859.100464	26.660431
835.683105	1146.862427	3408.730225	1818.141113	29.678070
835.986389	1174.168701	3203.933350	1727.120239	27.242151
836.289612	1185.546387	2914.942139	1663.405762	27.631580
836.592773	1155.964600	2746.553711	1656.579102	31.473528
836.895874	1103.627563	2598.644775	1599.691162	33.181129
837.198914	1171.893188	2541.756836	1620.170776	32.724247
837.501892	1176.444214	2380.194824	1599.691162	35.160683
837.804871	1115.005249	2355.164063	1510.945801	31.926601
838.107666	1140.035889	2243.663574	1417.649414	25.154636
838.410583	1112.729614	2118.509766	1369.863525	25.565619
838.713379	1055.841675	2138.989502	1360.761475	28.151264
839.016052	1124.107300	2111.683350	1381.241089	26.036860
839.318787	1083.147949	1913.713013	1290.220337	24.931507
839.621338	1117.280762	1975.152100	1290.220337	20.159151
839.923889	1110.454102	1847.722900	1351.659302	32.716045
840.226440	1146.862427	1977.427612	1338.006226	23.013702
840.528931	1135.484863	1970.601074	1281.118164	17.438686
840.831299	1142.311401	2136.714111	1317.526489	17.620134
841.133606	1187.821899	2168.571289	1406.271851	22.273779
841.435913	1176.444214	2161.744873	1392.618774	21.939959
841.738220	1119.556274	2104.856689	1399.445313	28.406467
842.040405	1185.546387	2125.336426	1422.200562	25.181601
842.342529	1167.342163	2054.795166	1394.894287	25.641033
842.644592	1053.566162	1879.580200	1303.873413	30.303026
842.946594	1153.689087	1852.273926	1278.842651	17.915298
843.248596	1130.933838	1895.508789	1315.250977	24.107138
843.550598	1137.760376	1872.753662	1292.495850	21.052637
843.852478	1133.209351	1809.039063	1308.424438	25.925922
844.154236	1130.933838	1849.998413	1365.312500	32.594940
844.455994	1087.698975	1718.018188	1292.495850	32.490978
844.757690	1046.739624	1731.671387	1265.189575	31.893681
845.059326	1103.627563	1738.497925	1276.567139	27.240141
845.360962	1074.045776	1706.640625	1269.740601	30.935255
845.662476	1128.658325	1697.538574	1246.985352	20.799988
845.963989	1062.668213	1692.987427	1319.802124	40.794235
846.265381	1115.005249	1702.089600	1242.434326	21.705412
846.566772	1119.556274	1586.037964	1260.638550	30.243904
846.868042	1060.392700	1642.926025	1249.260864	32.421864
847.169373	1201.474976	1722.569214	1258.363037	10.917039
847.470581	1187.821899	1663.405762	1196.923950	1.913869
847.771729	1094.525513	1656.579102	1278.842651	32.793518
848.072815	1140.035889	1595.140137	1297.046875	34.500004
848.373901	1115.005249	1570.109375	1260.638550	31.999996
848.674866	1126.382813	1545.078613	1233.332275	25.543476
848.975891	1124.107300	1601.966675	1228.781250	21.904760
849.276794	1149.138062	1624.721802	1267.465088	24.880377
849.577637	1053.566162	1595.140137	1283.393677	42.436958
849.878357	1099.076538	1570.109375	1206.026001	22.705309
850.179077	1140.035889	1565.558350	1235.607788	22.459896
850.479736	1110.454102	1631.548462	1290.220337	34.497829
850.780396	1130.933838	1595.140137	1242.434326	24.019598
851.080994	1144.586914	1581.486938	1237.883301	21.354174
851.381470	1094.525513	1604.242188	1246.985352	29.910702
851.681946	1074.045776	1510.945801	1217.403687	32.812519
851.982361	1140.035889	1574.660400	1231.056763	20.942415
852.282715	1162.791138	1581.486938	1237.883301	17.934778
852.583008	1121.831787	1647.477051	1212.852539	17.316004
852.883240	1190.097412	1631.548462	1208.301514	4.123696
853.183411	1153.689087	1574.660400	1265.189575	26.486481
853.483521	1153.689087	1545.078613	1237.883301	21.511616
853.783630	1092.250000	1617.895264	1194.648438	19.480522
854.083679	1210.577026	1567.833862	1212.852539	0.636940
854.383667	1099.076538	1615.619751	1217.403687	22.907503
854.683533	1174.168701	1535.976563	1344.832764	47.169804
854.983337	1085.423462	1586.037964	1240.158813	30.909082
855.283203	1137.760376	1565.558350	1221.954712	19.680864
855.582886	1158.240112	1522.323364	1215.128052	15.624981
855.882629	1096.801025	1549.629639	1158.240112	13.567845
856.182312	1058.117188	1513.221313	1210.577026	33.499992
856.481873	1064.943726	1565.558350	1169.617676	20.909088
856.781372	1121.831787	1465.435425	1226.505737	30.463575
857.080872	1149.138062	1447.231201	1208.301514	19.847303
857.380310	1112.729614	1556.456177	1246.985352	30.256413
857.679688	1080.872437	1545.078613	1237.883301	33.823521
857.979004	1085.423462	1581.486938	1219.679199	27.064226
858.278259	1076.321289	1581.486938	1269.740601	38.288296
858.577454	1130.933838	1533.701050	1190.097412	14.689273
858.876648	1144.586914	1522.323364	1155.964600	3.012070
859.175720	1146.862427	1588.313477	1183.270874	8.247448
859.474792	1167.342163	1510.945801	1206.026001	11.258274
859.773743	1135.484863	1506.394775	1253.812012	31.901857
860.072693	1187.821899	1526.874512	1203.750488	4.697969
860.371521	1167.342163	1572.384888	1208.301514	10.112353
860.670349	1144.586914	1506.394775	1231.056763	23.899384
860.969116	1219.679199	1517.772339	1272.016113	17.557236
861.267883	1126.382813	1495.017212	1219.679199	25.308649
861.566589	1160.515625	1501.843750	1203.750488	12.666657
861.865112	1146.862427	1488.190552	1158.240112	3.333357
862.163635	1103.627563	1617.895264	1183.270874	15.486742
862.462158	1074.045776	1417.649414	1201.474976	37.086102
862.760620	1128.658325	1513.221313	1221.954712	24.260366
863.059021	1071.770264	1565.558350	1208.301514	27.649765
863.357361	1101.352051	1495.017212	1217.403687	29.479784
863.655640	1142.311401	1538.252075	1242.434326	25.287355
863.953857	1174.168701	1549.629639	1206.026001	8.484851
864.251953	1126.382813	1565.558350	1237.883301	25.388592
864.550110	1194.648438	1429.027100	1169.617676	-10.679625
864.848206	1158.240112	1510.945801	1206.026001	13.548375
865.146179	1101.352051	1515.496826	1262.914063	39.010998
865.444092	1126.382813	1547.354126	1169.617676	10.270264
865.741943	1101.352051	1524.598877	1178.719727	18.279564
866.039795	1124.107300	1567.833862	1180.995239	12.820495
866.337646	1153.689087	1463.159912	1171.893188	5.882332
866.635376	1133.209351	1558.731689	1206.026001	17.112297
866.933044	1064.943726	1490.466064	1146.862427	19.251328
867.230652	1110.454102	1574.660400	1196.923950	18.627460
867.528198	1121.831787	1561.007324	1210.577026	20.207237
867.825745	1094.525513	1551.905151	1158.240112	13.930353
868.123230	1146.862427	1465.435425	1276.567139	40.714283
868.420593	1096.801025	1474.537476	1249.260864	40.361431
868.717896	1174.168701	1526.874512	1249.260864	21.290310
869.015198	1085.423462	1465.435425	1194.648438	28.742510
869.312439	1119.556274	1474.537476	1224.230225	29.487181
869.609619	1149.138062	1526.874512	1146.862427	-0.602440
869.906738	1155.964600	1442.680176	1142.311401	-4.761931
870.203796	1039.912964	1433.578125	1262.914063	56.647404
870.500854	1128.658325	1508.670288	1162.791138	8.982037
870.797791	1110.454102	1542.803101	1153.689087	10.000020
871.094666	1135.484863	1526.874512	1155.964600	5.232570
871.391602	1094.525513	1447.231201	1240.158813	41.290318
871.688293	1124.107300	1485.915039	1194.648438	19.496857
871.985107	1153.689087	1538.252075	1117.280762	-9.467454
872.281738	1146.862427	1576.935913	1190.097412	10.052930
872.578369	1105.903076	1490.466064	1240.158813	34.911247
872.874939	1128.658325	1506.394775	1199.199463	18.674698
873.171509	1153.689087	1485.915039	1233.332275	23.972597
873.467957	1112.729614	1479.088501	1228.781250	31.677036
873.764343	1044.463989	1561.007324	1196.923950	29.515425
874.060669	1149.138062	1524.598877	1215.128052	17.575733
874.356995	1067.219238	1456.333252	1265.189575	50.877205
874.653198	1085.423462	1444.955688	1283.393677	55.063274
874.949463	1060.392700	1476.812988	1246.985352	44.808731
875.245544	1137.760376	1488.190552	1228.781250	25.974039
875.541626	1167.342163	1508.670288	1249.260864	23.999985
875.837646	1192.372925	1549.629639	1192.372925	0.000000
876.133606	1201.474976	1508.670288	1185.546387	-5.185167
876.429565	1199.199463	1510.945801	1242.434326	13.868604
876.725403	1110.454102	1533.701050	1226.505737	27.419367
877.021179	1153.689087	1579.211426	1260.638550	25.133690
877.316956	1140.035889	1490.466064	1242.434326	29.220781
877.612610	1110.454102	1563.282837	1244.709839	29.648237
877.908203	1105.903076	1533.701050	1210.577026	24.468081
878.203857	1067.219238	1558.731689	1149.138062	16.666683
878.499390	1105.903076	1542.803101	1153.689087	10.937516
878.794800	1128.658325	1476.812988	1180.995239	15.032662
879.090271	1089.974487	1613.344238	1249.260864	30.434769
879.385559	1110.454102	1504.119263	1258.363037	37.572269
879.680847	1051.290649	1692.987427	1228.781250	27.659575
879.976196	1083.147949	1672.507813	1185.546387	17.374517
880.271301	1137.760376	1758.977539	1253.812012	18.681332
880.566467	1137.760376	1736.222412	1258.363037	20.152100
880.861572	1146.862427	1770.355225	1315.250977	27.007298
881.156555	1103.627563	2018.386963	1333.455200	25.124380
881.451477	1151.413574	2145.816162	1383.516602	23.340952
881.746460	1087.698975	2666.910400	1479.088501	24.783859
882.041321	1176.444214	3390.525879	1729.395752	24.974308
882.336121	1185.546387	4084.559814	1963.774414	26.844582
882.630798	1128.658325	4689.848145	2091.203613	27.028755
882.925537	1069.494751	4637.511230	2166.295898	30.739799
883.220215	1146.862427	4387.204102	2082.101563	28.862360
883.514771	1085.423462	4196.060547	2009.284912	29.700071
883.809326	1080.872437	3827.426025	1893.233276	29.577461
884.103760	1142.311401	3590.771729	1749.875488	24.814127
884.398132	1108.178589	3408.730225	1720.293701	26.607317
884.692505	1140.035889	3144.769775	1677.058838	26.787743
884.986816	1130.933838	2949.074951	1645.201538	28.285357
885.281067	1078.596802	2844.401123	1588.313477	28.865978
885.575256	1083.147949	2660.083740	1545.078613	29.292929
885.869385	1149.138062	2393.847900	1515.496826	29.433266
886.163452	1140.035889	2291.449463	1415.373901	23.913042
886.457458	1094.525513	2095.754639	1424.476074	32.954552
886.751465	1169.617676	2102.581299	1333.455200	17.560976
887.045410	1203.750488	2007.009399	1326.628662	15.297456
887.339233	1153.689087	1897.784302	1303.873413	20.183483
887.632996	1190.097412	1774.906250	1249.260864	10.116716
887.926758	1119.556274	1722.569214	1219.679199	16.603777
888.220398	1142.311401	1774.906250	1208.301514	10.431655
888.514099	1144.586914	1663.405762	1235.607788	17.543863
888.807678	1233.332275	1711.191650	1215.128052	-3.809536
889.101196	1146.862427	1611.068726	1260.638550	24.509819
889.394653	1117.280762	1611.068726	1269.740601	30.875568
889.688049	1096.801025	1540.527588	1174.168701	17.435890
889.981384	1142.311401	1583.762451	1167.342163	5.670110
890.274719	1178.719727	1481.364014	1140.035889	-12.781949
890.567932	1183.270874	1488.190552	1158.240112	-8.208969
>>>>>End Processed Spectral Data<<<<<
