Jaz Data File
++++++++++++++++++++++++++++++++++++
Date: Wed Feb 07 06:35:13 2024
User: jaz
Dark Spectrum Present: Yes
Reference Spectrum Present: Yes
Processed Spectrum Present: Yes
Spectrometers: JAZA3692
Integration Time (usec): 40000 (JAZA3692)
Spectra Averaged: 1 (JAZA3692)
Boxcar Smoothing: 0 (JAZA3692)
Correct for Electrical Dark: No (JAZA3692)
Strobe/Lamp Enabled: Yes (JAZA3692)
Correct for Detector Non-linearity: No (JAZA3692)
Correct for Stray Light: No (JAZA3692)
Number of Pixels in Processed Spectrum: 2048
>>>>>Begin Processed Spectral Data<<<<<
W	D	R	S	P
190.244385	0.000000	0.000000	0.000000	0.000000
190.627136	0.000000	0.000000	0.000000	0.000000
191.009842	1424.476074	1381.241089	1265.189575	368.420380
191.392532	1344.832764	1360.761475	1297.046875	-299.998474
191.775177	1369.863525	1378.965576	1253.812012	-1275.004028
192.157791	1410.822876	1438.129150	1322.077637	-324.999451
192.540390	1367.588013	1419.924927	1342.557251	-47.826210
192.922943	1408.547363	1406.271851	1272.016113	6000.021484
193.305481	1335.730713	1406.271851	1276.567139	-83.871025
193.687958	1381.241089	1431.302612	1433.578125	104.545433
194.070419	1347.108276	1358.485962	1356.210449	80.000214
194.452866	1447.231201	1442.680176	1328.904175	2600.008057
194.835251	1369.863525	1392.618774	1319.802124	-219.999359
195.217621	1367.588013	1344.832764	1290.220337	339.999237
195.599960	1438.129150	1388.067749	1433.578125	9.090887
195.982254	1456.333252	1442.680176	1406.271851	366.667572
196.364517	1490.466064	1365.312500	1406.271851	67.272728
196.746750	1449.506714	1429.027100	1353.934937	466.667847
197.128952	1390.343262	1353.934937	1376.690063	37.500210
197.511139	1444.955688	1456.333252	1333.455200	-980.003235
197.893280	1374.414551	1372.139038	1383.516602	-400.000000
198.275391	1399.445313	1340.281738	1246.985352	257.692261
198.657471	1410.822876	1392.618774	1294.771362	637.502014
199.039520	1394.894287	1431.302612	1356.210449	-106.249977
199.421539	1403.996338	1419.924927	1406.271851	14.285714
199.803513	1435.853638	1440.404663	1297.046875	-3050.010742
200.185471	1406.271851	1381.241089	1374.414551	127.272591
200.567383	1385.792114	1429.027100	1285.669312	-231.578201
200.949265	1456.333252	1431.302612	1331.179688	500.001465
201.331131	1392.618774	1449.506714	1344.832764	-84.000252
201.712967	1378.965576	1401.720825	1303.873413	-329.999298
202.094742	1442.680176	1435.853638	1267.465088	2566.675537
202.476517	1401.720825	1458.608887	1301.597900	-175.999893
202.858231	1408.547363	1378.965576	1349.383789	200.000000
203.239944	1415.373901	1392.618774	1317.526489	430.001617
203.621582	1376.690063	1472.261963	1326.628662	-52.380878
204.003235	1331.179688	1367.588013	1306.148926	-68.750107
204.384827	1328.904175	1444.955688	1388.067749	50.980442
204.766388	1369.863525	1438.129150	1310.699951	-86.666718
205.147934	1351.659302	1447.231201	1328.904175	-23.809433
205.529449	1392.618774	1433.578125	1340.281738	-127.777992
205.910904	1444.955688	1460.884399	1272.016113	-1085.709839
206.292343	1360.761475	1476.812988	1299.322388	-52.941219
206.673767	1429.027100	1413.098389	1326.628662	642.854492
207.055115	1456.333252	1390.343262	1306.148926	227.586533
207.436462	1403.996338	1431.302612	1299.322388	-383.332947
207.817780	1431.302612	1390.343262	1315.250977	283.333679
208.199051	1358.485962	1463.159912	1301.597900	-54.347870
208.580307	1424.476074	1422.200562	1376.690063	2100.010742
208.961517	1388.067749	1454.057739	1310.699951	-117.241714
209.342712	1440.404663	1431.302612	1315.250977	1375.005371
209.723846	1390.343262	1463.159912	1335.730713	-75.000084
210.104965	1403.996338	1388.067749	1324.353149	500.001526
210.486069	1426.751587	1447.231201	1378.965576	-233.334518
210.867111	1383.516602	1456.333252	1353.934937	-40.624863
211.248123	1385.792114	1390.343262	1292.495850	-2049.950439
211.629120	1385.792114	1424.476074	1285.669312	-258.822540
212.010071	1456.333252	1474.537476	1301.597900	-849.997009
212.390991	1406.271851	1378.965576	1210.577026	716.666138
212.771881	1349.383789	1397.169800	1369.863525	42.857178
213.152756	1401.720825	1438.129150	1319.802124	-224.999924
213.533569	1392.618774	1417.649414	1249.260864	-572.729736
213.914368	1331.179688	1429.027100	1242.434326	-90.697708
214.295135	1383.516602	1410.822876	1292.495850	-333.332733
214.675858	1433.578125	1458.608887	1312.975464	-481.817780
215.056549	1417.649414	1415.373901	1260.638550	6900.021484
215.437225	1365.312500	1431.302612	1274.291626	-137.931076
215.817841	1458.608887	1413.098389	1326.628662	289.999512
216.198441	1360.761475	1392.618774	1308.424438	-164.285858
216.579025	1356.210449	1378.965576	1258.363037	-430.001617
216.959549	1360.761475	1408.547363	1310.699951	-104.762146
217.340057	1413.098389	1442.680176	1267.465088	-492.307312
217.720535	1378.965576	1360.761475	1290.220337	487.501343
218.100967	1419.924927	1415.373901	1312.975464	2350.008057
218.481369	1340.281738	1435.853638	1308.424438	-33.333332
218.861740	1401.720825	1458.608887	1260.638550	-247.999786
219.242065	1424.476074	1367.588013	1290.220337	235.999847
219.622391	1338.006226	1510.945801	1265.189575	-42.105255
220.002670	1358.485962	1447.231201	1351.659302	-7.692424
220.382919	1338.006226	1365.312500	1344.832764	24.999887
220.763123	1381.241089	1479.088501	1276.567139	-106.976715
221.143295	1378.965576	1358.485962	1342.557251	177.778381
221.523453	1363.036987	1399.445313	1342.557251	-56.250145
221.903549	1406.271851	1485.915039	1360.761475	-57.142834
222.283630	1312.975464	1469.986450	1356.210449	27.536280
222.663696	1401.720825	1435.853638	1365.312500	-106.666641
223.043701	1376.690063	1385.792114	1278.842651	-1075.004028
223.423676	1353.934937	1488.190552	1331.179688	-16.949198
223.803635	1381.241089	1472.261963	1360.761475	-22.499910
224.183548	1394.894287	1442.680176	1269.740601	-261.905121
224.563431	1438.129150	1431.302612	1342.557251	1400.005371
224.943283	1419.924927	1451.782227	1353.934937	-207.142441
225.323105	1388.067749	1372.139038	1406.271851	-114.284836
225.702881	1442.680176	1449.506714	1297.046875	-2133.340576
226.082642	1326.628662	1465.435425	1358.485962	22.950827
226.462357	1374.414551	1458.608887	1306.148926	-81.081017
226.842041	1303.873413	1451.782227	1272.016113	-21.538473
227.221695	1326.628662	1467.710938	1303.873413	-16.129063
227.601318	1388.067749	1417.649414	1328.904175	-200.000824
227.980911	1419.924927	1488.190552	1269.740601	-219.999924
228.360474	1397.169800	1510.945801	1224.230225	-152.000046
228.739990	1374.414551	1508.670288	1344.832764	-22.033909
229.119476	1372.139038	1504.119263	1269.740601	-77.586197
229.498932	1403.996338	1604.242188	1356.210449	-23.863609
229.878372	1460.884399	1599.691162	1349.383789	-80.327934
230.257736	1358.485962	1702.089600	1383.516602	7.284742
230.637115	1465.435425	1679.334351	1385.792114	-37.234085
231.016449	1456.333252	1658.854614	1299.322388	-77.528053
231.395737	1363.036987	1599.691162	1367.588013	1.923070
231.774994	1419.924927	1561.007324	1308.424438	-79.032173
232.154221	1449.506714	1608.793213	1349.383789	-62.857132
232.533417	1406.271851	1583.762451	1269.740601	-76.923088
232.912582	1401.720825	1567.833862	1315.250977	-52.054825
233.291702	1338.006226	1581.486938	1290.220337	-19.626150
233.670792	1374.414551	1611.068726	1353.934937	-8.653815
234.049866	1419.924927	1615.619751	1306.148926	-58.139503
234.428894	1413.098389	1604.242188	1303.873413	-57.142830
234.807892	1351.659302	1495.017212	1385.792114	23.809507
235.186874	1285.669312	1524.598877	1397.169800	46.666676
235.565781	1460.884399	1601.966675	1253.812012	-146.774200
235.944687	1383.516602	1601.966675	1347.108276	-16.666656
236.323547	1397.169800	1622.446289	1340.281738	-25.252552
236.702377	1383.516602	1665.681274	1358.485962	-8.870934
237.081177	1381.241089	1581.486938	1253.812012	-63.636314
237.459946	1372.139038	1706.640625	1301.597900	-21.088432
237.838669	1422.200562	1615.619751	1338.006226	-43.529465
238.217361	1381.241089	1608.793213	1312.975464	-29.999994
238.596039	1363.036987	1670.232300	1363.036987	0.000000
238.974670	1385.792114	1622.446289	1306.148926	-33.653828
239.353271	1344.832764	1674.783325	1385.792114	12.413784
239.731842	1347.108276	1611.068726	1287.944824	-22.413757
240.110367	1383.516602	1704.365112	1340.281738	-13.475164
240.488876	1356.210449	1722.569214	1383.516602	7.453392
240.867340	1458.608887	1806.763550	1392.618774	-18.954252
241.245789	1401.720825	1818.141113	1265.189575	-32.786888
241.624176	1456.333252	1804.488037	1356.210449	-28.758129
242.002548	1394.894287	1904.610962	1290.220337	-20.535713
242.380890	1415.373901	1902.335449	1310.699951	-21.495321
242.759186	1356.210449	1943.294800	1308.424438	-8.139547
243.137451	1356.210449	2029.764526	1292.495850	-9.459463
243.515686	1331.179688	2123.060791	1342.557251	1.436777
243.893890	1310.699951	2204.979736	1340.281738	3.307889
244.272049	1495.017212	2209.530762	1360.761475	-18.789810
244.650192	1447.231201	2054.795166	1328.904175	-19.475649
245.028290	1426.751587	2029.764526	1438.129150	1.886786
245.406357	1403.996338	1925.090576	1349.383789	-10.480359
245.784393	1394.894287	1904.610962	1333.455200	-12.053576
246.162384	1388.067749	1925.090576	1315.250977	-13.559344
246.540359	1385.792114	2029.764526	1383.516602	-0.353356
246.918289	1403.996338	2134.438477	1358.485962	-6.230525
247.296204	1378.965576	2218.632813	1297.046875	-9.756091
247.674057	1394.894287	2473.491211	1374.414551	-1.898739
248.051895	1383.516602	2769.308838	1331.179688	-3.776678
248.429703	1376.690063	2805.717041	1422.200562	3.184719
248.807465	1315.250977	2810.268311	1326.628662	0.761040
249.185196	1392.618774	2582.716064	1340.281738	-4.397711
249.562897	1340.281738	2416.603027	1308.424438	-2.959832
249.940567	1367.588013	2341.510986	1367.588013	0.000000
250.318192	1419.924927	2214.081787	1324.353149	-12.034370
250.695801	1399.445313	2157.193604	1317.526489	-10.810822
251.073349	1449.506714	2066.172852	1351.659302	-15.867162
251.450882	1392.618774	1972.876587	1372.139038	-3.529420
251.828400	1406.271851	2020.662476	1342.557251	-10.370373
252.205872	1358.485962	2107.132324	1351.659302	-0.911867
252.583313	1378.965576	2118.509766	1401.720825	3.076929
252.960693	1381.241089	2164.020264	1399.445313	2.325589
253.338074	1374.414551	2234.561523	1429.027100	6.349211
253.715408	1415.373901	2216.357178	1390.343262	-3.124989
254.092682	1360.761475	2091.203613	1356.210449	-0.623051
254.469955	1390.343262	2093.479248	1369.863525	-2.912628
254.847198	1369.863525	2000.182739	1408.547363	6.137182
255.224365	1422.200562	1991.080688	1356.210449	-11.600003
255.601563	1408.547363	1950.121338	1353.934937	-10.084020
255.978683	1413.098389	2047.968750	1374.414551	-6.093187
256.355743	1424.476074	1961.498901	1353.934937	-13.135594
256.732819	1390.343262	2043.417725	1349.383789	-6.271792
257.109894	1349.383789	2043.417725	1310.699951	-5.573768
257.486877	1415.373901	2004.733887	1294.771362	-20.463306
257.863831	1426.751587	2009.284912	1358.485962	-11.718750
258.240753	1422.200562	2150.367188	1315.250977	-14.687515
258.617645	1374.414551	2273.245361	1372.139038	-0.253164
258.994507	1444.955688	2316.480225	1394.894287	-5.744118
259.371307	1349.383789	2423.429688	1440.404663	8.474580
259.748108	1372.139038	2491.695313	1392.618774	1.829273
260.124878	1394.894287	2764.757813	1394.894287	0.000000
260.501617	1347.108276	3053.749023	1399.445313	3.066670
260.878296	1390.343262	3258.545898	1429.027100	2.070645
261.254944	1394.894287	3358.668701	1381.241089	-0.695253
261.631561	1415.373901	3358.668701	1467.710938	2.693211
262.008179	1372.139038	2833.023438	1408.547363	2.492211
262.384735	1388.067749	2760.206787	1426.751587	2.819236
262.761261	1422.200562	2512.175049	1344.832764	-7.098129
263.137695	1406.271851	2389.296875	1360.761475	-4.629625
263.514191	1369.863525	2512.175049	1385.792114	1.394417
263.890594	1390.343262	2446.184814	1356.210449	-3.232759
264.267029	1397.169800	2352.888428	1335.730713	-6.428575
264.643341	1306.148926	2468.940186	1372.139038	5.675147
265.019653	1331.179688	2371.092773	1410.822876	7.658639
265.395935	1397.169800	2255.041016	1351.659302	-5.305050
265.772217	1392.618774	2248.214600	1403.996338	1.329782
266.148407	1410.822876	2357.439453	1385.792114	-2.644234
266.524597	1378.965576	2423.429688	1333.455200	-4.357295
266.900726	1347.108276	2375.643799	1358.485962	1.106202
267.276855	1326.628662	2600.920166	1392.618774	5.178573
267.652924	1340.281738	2646.430664	1374.414551	2.613240
268.028992	1376.690063	2755.655762	1397.169800	1.485152
268.404999	1403.996338	2691.941162	1367.588013	-2.826854
268.781006	1417.649414	2673.737061	1385.792114	-2.536232
269.156921	1381.241089	2594.093750	1419.924927	3.189492
269.532837	1383.516602	2657.808350	1419.924927	2.857142
269.908661	1338.006226	2671.461426	1390.343262	3.924919
270.284546	1290.220337	2589.542725	1397.169800	8.231173
270.660339	1410.822876	2534.930176	1406.271851	-0.404857
271.036133	1303.873413	2685.114502	1369.863525	4.777596
271.411835	1347.108276	2833.023438	1319.802124	-1.837666
271.787537	1351.659302	2939.972900	1426.751587	4.727800
272.163239	1444.955688	3160.698486	1331.179688	-6.631297
272.538849	1401.720825	3340.464600	1267.465088	-6.924883
272.914459	1340.281738	3217.586426	1415.373901	3.999999
273.290070	1344.832764	3206.208740	1351.659302	0.366747
273.665588	1338.006226	3024.167236	1367.588013	1.754387
274.041046	1390.343262	3005.962891	1449.506714	3.661967
274.416565	1392.618774	3049.197754	1406.271851	0.824173
274.791962	1419.924927	3021.891602	1424.476074	0.284098
275.167389	1351.659302	2812.543701	1353.934937	0.155771
275.542755	1426.751587	2789.788574	1383.516602	-3.171960
275.918060	1467.710938	2835.298828	1353.934937	-8.319466
276.293365	1472.261963	2862.605225	1401.720825	-5.073649
276.668640	1419.924927	2899.013428	1408.547363	-0.769228
277.043854	1326.628662	2978.656738	1383.516602	3.443521
277.419037	1365.312500	3010.513916	1378.965576	0.829873
277.794189	1306.148926	3030.993652	1444.955688	8.047493
278.169312	1417.649414	3012.789551	1454.057739	2.282453
278.544373	1408.547363	3040.095703	1403.996338	-0.278939
278.919464	1353.934937	2967.279053	1426.751587	4.513399
279.294464	1344.832764	2942.248291	1353.934937	0.569806
279.669464	1360.761475	2951.350586	1331.179688	-1.859801
280.044403	1340.281738	2942.248291	1403.996338	3.977274
280.419312	1312.975464	3003.687500	1403.996338	5.383582
280.794189	1435.853638	3099.259277	1363.036987	-4.377564
281.169037	1344.832764	3028.718262	1353.934937	0.540546
281.543854	1438.129150	3203.933350	1358.485962	-4.510307
281.918671	1413.098389	3176.626953	1385.792114	-1.548389
282.293365	1417.649414	3338.188965	1383.516602	-1.777251
282.668091	1376.690063	3511.128662	1367.588013	-0.426438
283.042786	1399.445313	3572.567627	1433.578125	1.570681
283.417419	1301.597900	3508.853027	1401.720825	4.536083
283.792053	1381.241089	3545.261475	1499.568237	5.467931
284.166595	1394.894287	3297.229736	1426.751587	1.674641
284.541138	1360.761475	3399.628174	1417.649414	2.790174
284.915619	1431.302612	3244.892578	1383.516602	-2.634885
285.290100	1335.730713	3456.516113	1413.098389	3.648067
285.664520	1431.302612	3490.648926	1403.996338	-1.325968
286.038940	1408.547363	3540.710449	1413.098389	0.213446
286.413300	1356.210449	3765.986816	1429.027100	3.021718
286.787628	1394.894287	3884.313965	1426.751587	1.279708
287.161896	1333.455200	3868.385254	1385.792114	2.064629
287.536194	1344.832764	3836.528076	1458.608887	4.566213
287.910400	1308.424438	3754.609375	1392.618774	3.441863
288.284607	1372.139038	3606.700439	1401.720825	1.323830
288.658752	1385.792114	3497.475586	1442.680176	2.693967
289.032867	1378.965576	3376.872803	1408.547363	1.480639
289.406921	1342.557251	3486.097900	1415.373901	3.397027
289.781006	1415.373901	3481.546875	1410.822876	-0.220264
290.154999	1454.057739	3549.812500	1410.822876	-2.062973
290.529022	1422.200562	3620.353516	1456.333252	1.552790
290.902954	1438.129150	3756.884766	1433.578125	-0.196270
291.276825	1317.526489	3884.313965	1533.701050	8.421988
291.650757	1363.036987	3973.059326	1479.088501	4.446380
292.024597	1403.996338	3913.895752	1403.996338	0.000000
292.398407	1397.169800	3831.977051	1449.506714	2.149530
292.772156	1399.445313	3802.395264	1508.670288	4.545454
293.145905	1388.067749	3561.189941	1463.159912	3.455497
293.519592	1349.383789	3577.118652	1469.986450	5.413690
293.893280	1406.271851	3611.251465	1469.986450	2.889578
294.266907	1397.169800	3763.711426	1449.506714	2.211536
294.640533	1410.822876	3759.160400	1376.690063	-1.453488
295.014069	1344.832764	3957.130615	1431.302612	3.310107
295.387604	1454.057739	4148.274414	1431.302612	-0.844592
295.761078	1392.618774	4173.305176	1429.027100	1.309329
296.134552	1467.710938	4098.212891	1431.302612	-1.384083
296.507996	1333.455200	4123.243652	1472.261963	4.975530
296.881378	1408.547363	4114.141602	1469.986450	2.270817
297.254730	1403.996338	4398.581543	1540.527588	4.559271
297.628021	1403.996338	4603.378418	1510.945801	3.342816
298.001282	1367.588013	4808.175293	1497.292725	3.769842
298.374573	1390.343262	4683.021973	1481.364014	2.764338
298.747803	1458.608887	4566.970215	1497.292725	1.244509
299.121002	1383.516602	4371.275391	1447.231201	2.132522
299.494141	1376.690063	4202.886719	1497.292725	4.267313
299.867188	1385.792114	4150.549805	1435.853638	1.810702
300.240265	1417.649414	4014.018799	1465.435425	1.840494
300.613312	1331.179688	3847.905762	1481.364014	5.967448
300.986328	1322.077637	3847.905762	1481.364014	6.306303
301.359314	1372.139038	3841.079102	1435.853638	2.580646
301.732239	1422.200562	3804.670898	1433.578125	0.477553
302.105103	1378.965576	3895.691650	1419.924927	1.627485
302.477997	1365.312500	3879.762939	1383.516602	0.723979
302.850830	1438.129150	3998.090088	1440.404663	0.088889
303.223602	1422.200562	3809.221924	1408.547363	-0.571976
303.596375	1319.802124	3804.670898	1431.302612	4.487178
303.969116	1438.129150	3643.108887	1365.312500	-3.302373
304.341766	1417.649414	3606.700439	1426.751587	0.415805
304.714478	1383.516602	3722.751953	1406.271851	0.972764
305.087067	1378.965576	3645.384277	1374.414551	-0.200803
305.459656	1383.516602	3752.333740	1429.027100	1.921233
305.832214	1347.108276	3581.669678	1397.169800	2.240329
306.204681	1335.730713	3604.425049	1435.853638	4.413240
306.577148	1358.485962	3663.588379	1440.404663	3.553799
306.949646	1335.730713	3711.374512	1483.639526	6.226052
307.322021	1419.924927	3709.098877	1497.292725	3.379726
307.694397	1424.476074	3597.598389	1442.680176	0.837693
308.066742	1365.312500	3750.058350	1444.955688	3.339693
308.439026	1356.210449	3775.089111	1458.608887	4.233302
308.811279	1374.414551	3841.079102	1419.924927	1.845017
309.183502	1356.210449	4041.324951	1406.271851	1.864405
309.555695	1460.884399	3975.334961	1472.261963	0.452487
309.927887	1335.730713	4014.018799	1438.129150	3.823279
310.299988	1381.241089	4125.519043	1483.639526	3.731344
310.672058	1440.404663	4164.203125	1435.853638	-0.167084
311.044128	1308.424438	4136.896973	1438.129150	4.585680
311.416168	1399.445313	4161.927734	1467.710938	2.471169
311.788147	1392.618774	4209.713379	1403.996338	0.403876
312.160065	1410.822876	4166.478516	1451.782227	1.486374
312.531982	1312.975464	4093.661865	1442.680176	4.664485
312.903870	1338.006226	4011.743164	1458.608887	4.510641
313.275696	1431.302612	3825.150391	1513.221313	3.422052
313.647491	1438.129150	3875.211914	1419.924927	-0.746968
314.019318	1419.924927	3984.437012	1481.364014	2.395742
314.391022	1388.067749	3850.181152	1413.098389	1.016632
314.762726	1342.557251	4050.427002	1335.730713	-0.252100
315.134369	1347.108276	4061.804688	1542.803101	7.208719
315.505981	1308.424438	4105.039551	1542.803101	8.380797
315.877594	1415.373901	4148.274414	1442.680176	0.999168
316.249146	1351.659302	4136.896973	1442.680176	3.267975
316.620636	1435.853638	3959.406250	1490.466064	2.164109
316.992157	1340.281738	3886.589600	1481.364014	5.540660
317.363586	1292.495850	3756.884766	1495.017212	8.217914
317.735016	1399.445313	3786.466553	1444.955688	1.906576
318.106354	1378.965576	3704.547852	1397.169800	0.782781
318.477722	1415.373901	3695.445801	1467.710938	2.295412
318.849060	1381.241089	3877.487549	1424.476074	1.732000
319.220306	1417.649414	3866.109863	1492.741699	3.066918
319.591522	1358.485962	3929.824463	1399.445313	1.592919
319.962738	1492.741699	3909.344727	1426.751587	-2.730697
320.333923	1372.139038	3941.202148	1383.516602	0.442868
320.705017	1390.343262	3902.518066	1483.639526	3.713765
321.076111	1369.863525	3904.793701	1474.537476	4.129264
321.447144	1369.863525	3734.129639	1351.659302	-0.769974
321.818176	1331.179688	3674.966064	1481.364014	6.407765
322.189178	1376.690063	3661.312988	1438.129150	2.689244
322.560120	1344.832764	3645.384277	1385.792114	1.780414
322.931030	1265.189575	3857.007813	1499.568237	9.043020
323.301910	1310.699951	3913.895752	1360.761475	1.923079
323.672729	1401.720825	4177.855957	1376.690063	-0.901641
324.043549	1358.485962	4207.437988	1488.190552	4.552712
324.414337	1376.690063	4516.908691	1488.190552	3.550724
324.785095	1342.557251	4671.644043	1451.782227	3.280929
325.155792	1353.934937	4437.265625	1492.741699	4.501845
325.526428	1403.996338	4557.868164	1506.394775	3.246753
325.897034	1394.894287	4353.071289	1490.466064	3.230766
326.267670	1381.241089	4480.500488	1517.772339	4.405286
326.638184	1385.792114	4430.438965	1510.945801	4.110614
327.008728	1353.934937	4421.336914	1451.782227	3.189908
327.379211	1403.996338	4564.694824	1517.772339	3.599711
327.749634	1356.210449	4384.928711	1563.282837	6.836964
328.120026	1424.476074	4307.561035	1529.150024	3.630623
328.490417	1338.006226	4189.233887	1495.017212	5.506785
328.860748	1410.822876	4159.651855	1522.323364	4.056290
329.231079	1417.649414	4084.559814	1474.537476	2.133107
329.601318	1335.730713	4020.845215	1510.945801	6.525424
329.971558	1381.241089	4200.611328	1460.884399	2.824862
330.341736	1385.792114	4105.039551	1433.578125	1.757325
330.711914	1363.036987	4282.530273	1372.139038	0.311768
331.082062	1429.027100	4296.183105	1479.088501	1.746030
331.452148	1385.792114	4243.846191	1463.159912	2.707010
331.822174	1381.241089	4150.549805	1531.425537	5.423175
332.192200	1385.792114	4357.622559	1520.047852	4.517611
332.562134	1397.169800	4419.061523	1540.527588	4.743975
332.932129	1410.822876	4346.244629	1492.741699	2.790700
333.302063	1347.108276	4500.979980	1576.935913	7.287159
333.671906	1401.720825	4635.235840	1492.741699	2.814920
334.041718	1358.485962	4626.133789	1561.007324	6.197772
334.411499	1390.343262	4708.052734	1483.639526	2.812068
334.781281	1390.343262	4662.541992	1538.252075	4.520166
335.151001	1360.761475	4719.430176	1595.140137	6.978321
335.520721	1360.761475	4662.541992	1492.741699	3.997244
335.890350	1381.241089	4537.388672	1526.874512	4.614278
336.259979	1322.077637	4642.062500	1529.150024	6.237149
336.629547	1324.353149	4617.031738	1474.537476	4.561160
336.999084	1349.383789	4553.316895	1531.425537	5.681821
337.368622	1367.588013	4562.419434	1499.568237	4.131054
337.738098	1392.618774	4712.603516	1545.078613	4.592185
338.107513	1415.373901	4607.929688	1522.323364	3.349964
338.476898	1424.476074	4664.817871	1576.935913	4.705054
338.846252	1447.231201	4607.929688	1529.150024	2.591795
339.215576	1397.169800	4710.328125	1526.874512	3.914836
339.584869	1376.690063	4671.644043	1595.140137	6.629837
339.954132	1444.955688	4701.226074	1554.180664	3.354297
340.323334	1474.537476	4612.480469	1549.629639	2.393038
340.692505	1403.996338	4455.469727	1642.926025	7.829978
341.061646	1385.792114	4464.571777	1517.772339	4.286770
341.430786	1358.485962	4537.388672	1572.384888	6.728703
341.799896	1369.863525	4548.766113	1545.078613	5.511810
342.168915	1344.832764	4623.858398	1667.956787	9.854270
342.537903	1431.302612	4796.797852	1622.446289	5.679512
342.906830	1374.414551	4958.359863	1542.803101	4.698413
343.275757	1401.720825	4910.573730	1590.588989	5.382618
343.644684	1372.139038	4826.379395	1538.252075	4.808960
344.013550	1365.312500	5001.594727	1572.384888	5.694618
344.382355	1367.588013	5238.249023	1565.558350	5.114639
344.751129	1385.792114	5276.932617	1565.558350	4.619885
345.119873	1426.751587	5486.280762	1547.354126	2.970850
345.488586	1392.618774	5670.597656	1595.140137	4.734043
345.857269	1360.761475	5854.915039	1720.293701	7.999999
346.225891	1403.996338	6025.579102	1738.497925	7.237814
346.594482	1392.618774	5959.588867	1647.477051	5.580467
346.963043	1419.924927	5879.945801	1622.446289	4.540816
347.331543	1426.751587	5604.607910	1738.497925	7.461873
347.700043	1397.169800	5415.739746	1733.946899	8.380521
348.068512	1378.965576	5217.769043	1672.507813	7.646712
348.436951	1419.924927	5190.462891	1645.201538	5.974654
348.805328	1406.271851	5115.370605	1601.966675	5.276075
349.173645	1358.485962	5129.023926	1642.926025	7.543753
349.541931	1454.057739	5106.268555	1688.436401	6.417446
349.910217	1374.414551	5283.759277	1588.313477	5.471478
350.278473	1381.241089	5361.126953	1642.926025	6.575187
350.646667	1392.618774	5497.658203	1658.854614	6.485585
351.014801	1413.098389	5424.841797	1572.384888	3.970506
351.382935	1392.618774	5422.565918	1633.823975	5.985319
351.751007	1312.975464	5563.648438	1631.548462	7.494649
352.119049	1365.312500	5436.219238	1558.731689	4.751256
352.487091	1324.353149	5465.800781	1592.864502	6.483514
352.855072	1369.863525	5618.260742	1672.507813	7.123728
353.222992	1381.241089	5552.270996	1663.405762	6.764868
353.590881	1326.628662	5707.006348	1599.691162	6.233766
353.958740	1422.200562	5779.822754	1665.681274	5.587467
354.326599	1340.281738	6116.600098	1672.507813	6.955694
354.694397	1408.547363	6084.742676	1656.579102	5.304135
355.062134	1397.169800	6282.712891	1636.099487	4.890545
355.429840	1378.965576	6284.988281	1638.375000	5.287571
355.797516	1358.485962	6335.049805	1656.579102	5.989939
356.165192	1319.802124	6635.418457	1688.436401	6.934930
356.532776	1385.792114	6794.705078	1752.151001	6.773244
356.900360	1472.261963	6924.409668	1713.467163	4.424040
357.267883	1388.067749	7033.634766	1706.640625	5.642886
357.635376	1449.506714	7393.166992	1722.569214	4.594181
358.002808	1322.077637	7848.271484	1777.181763	6.973500
358.370270	1440.404663	8116.782715	1720.293701	4.192229
358.737640	1328.904175	7977.976074	1856.824951	7.939766
359.105011	1356.210449	7968.874023	1749.875488	5.953199
359.472321	1290.220337	7520.596191	1708.916138	6.720233
359.839569	1374.414551	7290.768555	1692.987427	5.384615
360.206787	1367.588013	7361.309570	1683.885376	5.277144
360.574005	1392.618774	7616.167969	1727.120239	5.374770
360.941193	1353.934937	7943.843262	1820.416626	7.078728
361.308319	1408.547363	8519.549805	1747.599976	4.768000
361.675415	1374.414551	9079.328125	1799.937012	5.522741
362.042450	1449.506714	9639.106445	1788.559326	4.140039
362.409424	1353.934937	10053.250977	1920.539551	6.513208
362.776428	1433.578125	10248.945313	1886.406738	5.136809
363.143402	1360.761475	9905.341797	1838.620850	5.592544
363.510284	1433.578125	9184.001953	1793.110352	4.638872
363.877136	1322.077637	8508.171875	1706.640625	5.351488
364.243988	1385.792114	7818.689453	1690.711914	4.740007
364.610779	1390.343262	7638.923340	1706.640625	5.061908
364.977539	1440.404663	7454.605957	1704.365112	4.388953
365.344269	1438.129150	7217.952148	1674.783325	4.094488
365.710938	1381.241089	7327.176758	1595.140137	3.597399
366.077576	1287.944824	7054.114258	1688.436401	6.945539
366.444183	1358.485962	6903.930176	1597.415649	4.308576
366.810760	1374.414551	6851.593262	1574.660400	3.656003
367.177277	1460.884399	7072.318848	1608.793213	2.635847
367.543823	1424.476074	7026.808105	1647.477051	3.980503
367.910248	1265.189575	6990.399902	1620.170776	6.200317
368.276642	1310.699951	6851.593262	1620.170776	5.585215
368.643036	1294.771362	6844.766602	1615.619751	5.781057
369.009399	1397.169800	6535.295898	1588.313477	3.720105
369.375671	1351.659302	6521.642578	1595.140137	4.709509
369.741974	1394.894287	6482.958984	1620.170776	4.427548
370.108215	1399.445313	6505.713867	1597.415649	3.877006
370.474396	1383.516602	6467.030273	1604.242188	4.341989
370.840546	1328.904175	6646.796387	1713.467163	7.231493
371.206665	1333.455200	6787.878418	1613.344238	5.131414
371.572784	1385.792114	6835.664551	1633.823975	4.551150
371.938843	1442.680176	7013.155273	1592.864502	2.696078
372.304840	1392.618774	7040.461426	1542.803101	2.659145
372.670807	1347.108276	7097.349609	1661.130127	5.461020
373.036713	1306.148926	6990.399902	1576.935913	4.763811
373.402649	1394.894287	6819.735840	1606.517700	3.901006
373.768524	1424.476074	6958.542480	1567.833862	2.590460
374.134308	1447.231201	6822.011230	1513.221313	1.227773
374.500122	1360.761475	6999.501953	1558.731689	3.510894
374.865875	1349.383789	7145.135254	1535.976563	3.219475
375.231567	1417.649414	7010.879395	1597.415649	3.213997
375.597260	1415.373901	7256.635742	1601.966675	3.194391
375.962891	1383.516602	7211.125488	1629.272949	4.217104
376.328461	1394.894287	7511.494141	1574.660400	2.938988
376.694031	1401.720825	7714.015625	1649.752563	3.929343
377.059540	1413.098389	7946.118652	1597.415649	2.821318
377.425049	1435.853638	8241.936523	1617.895264	2.674690
377.790497	1429.027100	8437.630859	1670.232300	3.441559
378.155945	1403.996338	8769.857422	1649.752563	3.336422
378.521301	1290.220337	8772.132813	1670.232300	5.079075
378.886597	1326.628662	8592.366211	1583.762451	3.538991
379.251892	1369.863525	8096.303223	1670.232300	4.465494
379.617157	1374.414551	7873.301758	1638.375000	4.061625
379.982422	1358.485962	7650.300781	1561.007324	3.218807
380.347595	1301.597900	7465.983887	1595.140137	4.761906
380.712738	1363.036987	7336.279297	1567.833862	3.428571
381.077820	1406.271851	7568.382324	1599.691162	3.138849
381.442902	1385.792114	7347.656738	1617.895264	3.893130
381.807953	1388.067749	7575.208984	1601.966675	3.457153
382.172974	1449.506714	7611.617188	1611.068726	2.621862
382.537933	1356.210449	7618.443848	1590.588989	3.742731
382.902832	1342.557251	7440.953125	1454.057739	1.828358
383.267700	1347.108276	7745.873047	1529.150024	2.844951
383.632538	1392.618774	7800.485352	1556.456177	2.556817
383.997345	1349.383789	7971.149414	1524.598877	2.646048
384.362152	1317.526489	8132.711426	1601.966675	4.173624
384.726898	1413.098389	8194.150391	1538.252075	1.845638
385.091553	1422.200562	8403.498047	1599.691162	2.542373
385.456238	1374.414551	8237.385742	1506.394775	1.923077
385.820862	1378.965576	8055.343750	1529.150024	2.249490
386.185425	1347.108276	8360.263672	1565.558350	3.114861
386.549988	1360.761475	8328.406250	1524.598877	2.351403
386.914490	1388.067749	8373.916992	1467.710938	1.140065
387.278961	1308.424438	8385.293945	1533.701050	3.183280
387.643372	1422.200562	8483.141602	1588.313477	2.352561
388.007782	1365.312500	8580.989258	1586.037964	3.058971
388.372101	1324.353149	8551.407227	1590.588989	3.683878
388.736450	1390.343262	8460.386719	1554.180664	2.317347
389.100739	1417.649414	8464.937500	1540.527588	1.743623
389.464966	1378.965576	8398.947266	1597.415649	3.111833
389.829163	1344.832764	8328.406250	1556.456177	3.030303
390.193329	1472.261963	8537.753906	1545.078613	1.030596
390.557495	1413.098389	8408.049805	1606.517700	2.765127
390.921570	1397.169800	8676.560547	1545.078613	2.031884
391.285614	1408.547363	8626.499023	1499.568237	1.261035
391.649597	1440.404663	9407.002930	1586.037964	1.828049
392.013550	1376.690063	9814.321289	1545.078613	1.995685
392.377502	1374.414551	9825.699219	1583.762451	2.477113
392.741455	1342.557251	9689.167969	1522.323364	2.153762
393.105316	1378.965576	9873.484375	1572.384888	2.276990
393.469086	1424.476074	9550.360352	1570.109375	1.792215
393.832886	1358.485962	9347.839844	1583.762451	2.819708
394.196655	1338.006226	9370.594727	1522.323364	2.294617
394.560333	1401.720825	9486.646484	1615.619751	2.645651
394.924042	1326.628662	9777.913086	1495.017212	1.992461
395.287659	1403.996338	9752.881836	1626.997314	2.671027
395.651245	1403.996338	9707.372070	1620.170776	2.603452
396.014771	1435.853638	9545.809570	1549.629639	1.402918
396.378296	1413.098389	9224.960938	1458.608887	0.582582
396.741791	1381.241089	8965.551758	1497.292725	1.530154
397.105255	1374.414551	8788.061523	1570.109375	2.639657
397.468628	1363.036987	8683.387695	1513.221313	2.051600
397.832001	1381.241089	8644.703125	1567.833862	2.568923
398.195313	1338.006226	8685.663086	1488.190552	2.043976
398.558624	1381.241089	8849.500000	1517.772339	1.828154
398.921844	1385.792114	8756.204102	1535.976563	2.037667
399.285095	1363.036987	8726.622070	1554.180664	2.595796
399.648254	1324.353149	8774.408203	1515.496826	2.565668
400.011383	1415.373901	8765.305664	1497.292725	1.114552
400.374451	1399.445313	8521.825195	1474.537476	1.054313
400.737549	1383.516602	9147.593750	1542.803101	2.051583
401.100586	1367.588013	8781.234375	1472.261963	1.411909
401.463562	1326.628662	8599.193359	1365.312500	0.531915
401.826508	1388.067749	9013.337891	1545.078613	2.059086
402.189392	1360.761475	8831.295898	1520.047852	2.132195
402.552246	1353.934937	8753.928711	1515.496826	2.183271
402.915070	1376.690063	8835.847656	1581.486938	2.745576
403.277893	1442.680176	9147.593750	1508.670288	0.856468
403.640656	1440.404663	9234.063477	1515.496826	0.963503
404.003326	1431.302612	9491.197266	1479.088501	0.592885
404.366028	1388.067749	9682.340820	1524.598877	1.646089
404.728699	1397.169800	9980.434570	1456.333252	0.689288
405.091248	1349.383789	10308.109375	1613.344238	2.946406
405.453857	1374.414551	10178.404297	1522.323364	1.680020
405.816345	1390.343262	10185.231445	1533.701050	1.630013
406.178833	1394.894287	10114.690430	1597.415649	2.322547
406.541260	1367.588013	10269.425781	1526.874512	1.789366
406.903687	1328.904175	9695.994141	1565.558350	2.828393
407.266052	1310.699951	9755.157227	1538.252075	2.694692
407.628387	1408.547363	9823.422852	1565.558350	1.865874
407.990662	1408.547363	9579.942383	1563.282837	1.893624
408.352905	1347.108276	9618.625977	1574.660400	2.751032
408.715118	1413.098389	9668.687500	1517.772339	1.267916
409.077332	1413.098389	9645.932617	1435.853638	0.276396
409.439484	1363.036987	9725.576172	1542.803101	2.149659
409.801575	1435.853638	9693.718750	1545.078613	1.322678
410.163605	1374.414551	9941.750000	1554.180664	2.098273
410.525635	1308.424438	9991.811523	1531.425537	2.568135
410.887604	1406.271851	10139.720703	1524.598877	1.354872
411.249573	1349.383789	10276.251953	1554.180664	2.294163
411.611481	1442.680176	10162.475586	1538.252075	1.096034
411.973328	1413.098389	10255.772461	1636.099487	2.521874
412.335144	1408.547363	10010.015625	1608.793213	2.328043
412.696930	1401.720825	10126.067383	1551.905151	1.721439
413.058685	1367.588013	9595.871094	1563.282837	2.378319
413.420410	1422.200562	9959.954102	1535.976563	1.332622
413.782104	1381.241089	10073.730469	1551.905151	1.963351
414.143707	1353.934937	10071.455078	1549.629639	2.244844
414.505310	1344.832764	10023.668945	1551.905151	2.385947
414.866852	1378.965576	10160.200195	1499.568237	1.373414
415.228394	1390.343262	10496.977539	1524.598877	1.474262
415.589874	1358.485962	10522.007813	1526.874512	1.837597
415.951324	1451.782227	10435.538086	1501.843750	0.557245
416.312683	1378.965576	10888.367188	1472.261963	0.981096
416.674072	1390.343262	11245.624023	1481.364014	0.923573
417.035370	1413.098389	11379.879883	1538.252075	1.255708
417.396667	1367.588013	11250.174805	1535.976563	1.703891
417.757935	1408.547363	11618.809570	1590.588989	1.782928
418.119141	1394.894287	12242.301758	1606.517700	1.950912
418.480286	1369.863525	12376.557617	1620.170776	2.274137
418.841400	1360.761475	12979.570313	1520.047852	1.370936
419.202484	1413.098389	13311.796875	1624.721802	1.778543
419.563568	1435.853638	13828.339844	1679.334351	1.964745
419.924591	1415.373901	14529.200195	1626.997314	1.613743
420.285553	1331.179688	14586.087891	1647.477051	2.386266
420.646484	1390.343262	15689.715820	1715.742676	2.275620
421.007355	1392.618774	15871.757813	1656.579102	1.823039
421.368225	1342.557251	16888.916016	1697.538574	2.283373
421.729065	1401.720825	17325.814453	1790.834839	2.443555
422.089874	1365.312500	18090.390625	1754.426514	2.326530
422.450592	1322.077637	17860.562500	1713.467163	2.366538
422.811279	1383.516602	17555.642578	1690.711914	1.899536
423.171936	1344.832764	17357.671875	1645.201538	1.875800
423.532593	1378.965576	16775.138672	1722.569214	2.231747
423.893127	1356.210449	17450.968750	1658.854614	1.880390
424.253723	1381.241089	17780.919922	1777.181763	2.414320
424.614197	1433.578125	17901.521484	1606.517700	1.050159
424.974670	1381.241089	18420.341797	1777.181763	2.323718
425.335052	1322.077637	18811.730469	1647.477051	1.860525
425.695496	1381.241089	17758.164063	1677.058838	1.806309
426.055817	1392.618774	18076.736328	1731.671387	2.032188
426.416168	1401.720825	17633.009766	1704.365112	1.864573
426.776398	1381.241089	16750.109375	1561.007324	1.169678
427.136627	1426.751587	16153.921875	1658.854614	1.576019
427.496826	1399.445313	15619.174805	1690.711914	2.048327
427.856995	1356.210449	15232.335938	1663.405762	2.213841
428.217102	1408.547363	14661.180664	1604.242188	1.476649
428.577179	1356.210449	14779.507813	1640.650513	2.119003
428.937195	1365.312500	14622.497070	1656.579102	2.197047
429.297180	1342.557251	14165.117188	1520.047852	1.384206
429.657135	1319.802124	13691.808594	1576.935913	2.078351
430.017059	1403.996338	14149.188477	1561.007324	1.231923
430.376984	1392.618774	13823.789063	1508.670288	0.933553
430.736786	1410.822876	13778.278320	1626.997314	1.747930
431.096588	1322.077637	13562.103516	1658.854614	2.751440
431.456360	1424.476074	13500.665039	1581.486938	1.300169
431.816071	1381.241089	13307.246094	1576.935913	1.640908
432.175781	1394.894287	13448.328125	1599.691162	1.699075
432.535400	1301.597900	13559.828125	1570.109375	2.190459
432.895020	1324.353149	13163.887695	1599.691162	2.325582
433.254578	1401.720825	13457.429688	1601.966675	1.661004
433.614105	1435.853638	13787.380859	1649.752563	1.731761
433.973602	1458.608887	14001.279297	1622.446289	1.306240
434.333038	1363.036987	14014.932617	1606.517700	1.924460
434.692444	1344.832764	14322.127930	1531.425537	1.437840
435.051819	1374.414551	14492.791992	1601.966675	1.734606
435.411133	1424.476074	14574.710938	1665.681274	1.834227
435.770416	1492.741699	13634.920898	1611.068726	0.974512
436.129669	1363.036987	14347.158203	1556.456177	1.489659
436.488861	1342.557251	14087.749023	1588.313477	1.928227
436.848083	1317.526489	14083.198242	1597.415649	2.192514
437.207184	1356.210449	13830.615234	1524.598877	1.349872
437.566254	1324.353149	14285.719727	1563.282837	1.843399
437.925293	1454.057739	14222.004883	1654.303589	1.568348
438.284363	1324.353149	14338.056641	1574.660400	1.923413
438.643311	1351.659302	14706.691406	1601.966675	1.874255
439.002258	1419.924927	14718.068359	1604.242188	1.386038
439.361145	1388.067749	15075.325195	1658.854614	1.978387
439.719971	1388.067749	15564.562500	1674.783325	2.022471
440.078827	1417.649414	15676.062500	1690.711914	1.915097
440.437592	1342.557251	16137.993164	1629.272949	1.937866
440.796295	1347.108276	16015.115234	1699.814087	2.404593
441.155029	1338.006226	17460.070313	1720.293701	2.371207
441.513672	1381.241089	17972.062500	1718.018188	2.029900
441.872253	1385.792114	17667.142578	1686.160889	1.844864
442.230865	1399.445313	17405.458984	1620.170776	1.379016
442.589386	1394.894287	17155.150391	1658.854614	1.674848
442.947876	1403.996338	17248.447266	1663.405762	1.637226
443.306335	1376.690063	16893.466797	1636.099487	1.671800
443.664764	1301.597900	16046.972656	1647.477051	2.345679
444.023102	1360.761475	16556.689453	1640.650513	1.841869
444.381500	1365.312500	16490.699219	1597.415649	1.534527
444.739777	1358.485962	16131.166992	1663.405762	2.064079
445.098022	1408.547363	16297.280273	1620.170776	1.421366
445.456238	1356.210449	16322.310547	1670.232300	2.098221
445.814423	1403.996338	17268.927734	1606.517700	1.276535
446.172577	1351.659302	17896.970703	1688.436401	2.035484
446.530701	1438.129150	17655.765625	1663.405762	1.389084
446.888733	1413.098389	18465.851563	1588.313477	1.027488
447.246765	1417.649414	19273.662109	1661.130127	1.363578
447.604736	1458.608887	18754.841797	1592.864502	0.776213
447.962677	1394.894287	18914.128906	1629.272949	1.337836
448.320587	1424.476074	19369.232422	1595.140137	0.951053
448.678436	1403.996338	18973.292969	1711.191650	1.748478
449.036255	1369.863525	18795.802734	1677.058838	1.762862
449.394043	1358.485962	17865.113281	1631.548462	1.654260
449.751770	1349.383789	17630.734375	1697.538574	2.138366
450.109467	1372.139038	17623.908203	1645.201538	1.680202
450.467163	1342.557251	17350.845703	1677.058838	2.089552
450.824768	1349.383789	17241.621094	1706.640625	2.247996
451.182343	1331.179688	16959.457031	1615.619751	1.820035
451.539886	1363.036987	15960.502930	1601.966675	1.636789
451.897369	1435.853638	16338.239258	1558.731689	0.824553
452.254822	1426.751587	16158.473633	1556.456177	0.880444
452.612274	1272.016113	16925.324219	1622.446289	2.238697
452.969635	1363.036987	16583.996094	1533.701050	1.121244
453.326965	1378.965576	16467.943359	1526.874512	0.980245
453.684326	1403.996338	16185.779297	1633.823975	1.554803
454.041534	1394.894287	15980.982422	1592.864502	1.357254
454.398773	1390.343262	15503.123047	1642.926025	1.789745
454.755951	1433.578125	15129.937500	1588.313477	1.129755
455.113098	1408.547363	14636.149414	1617.895264	1.582660
455.470215	1408.547363	15032.090820	1629.272949	1.620178
455.827240	1374.414551	14959.273438	1581.486938	1.524288
456.184265	1492.741699	14759.028320	1538.252075	0.343053
456.541260	1347.108276	14781.783203	1574.660400	1.693767
456.898193	1385.792114	14381.291016	1526.874512	1.085625
457.255096	1374.414551	14727.170898	1608.793213	1.755283
457.611969	1360.761475	14611.119141	1533.701050	1.305169
457.968781	1374.414551	14888.732422	1538.252075	1.212325
458.325531	1376.690063	14991.130859	1522.323364	1.069697
458.682312	1401.720825	15830.797852	1702.089600	2.081691
459.039001	1360.761475	16304.106445	1604.242188	1.629359
459.395630	1429.027100	17216.589844	1549.629639	0.763909
459.752289	1385.792114	18661.546875	1622.446289	1.369863
460.108856	1376.690063	19712.835938	1702.089600	1.774634
460.465363	1422.200562	20363.634766	1622.446289	1.057184
460.821899	1385.792114	20441.003906	1658.854614	1.433007
461.178345	1458.608887	20004.103516	1663.405762	1.104295
461.534760	1372.139038	19492.111328	1743.048950	2.046967
461.891144	1342.557251	19321.447266	1713.467163	2.063030
462.247467	1351.659302	18092.666016	1617.895264	1.590322
462.603760	1438.129150	17890.144531	1661.130127	1.355463
462.960052	1317.526489	16822.925781	1658.854614	2.201350
463.316254	1347.108276	16392.851563	1606.517700	1.724138
463.672424	1433.578125	16263.147461	1615.619751	1.227558
464.028564	1363.036987	15503.123047	1642.926025	1.979401
464.384644	1340.281738	15450.786133	1558.731689	1.548137
464.740723	1335.730713	15575.939453	1545.078613	1.470118
465.096741	1383.516602	15377.969727	1570.109375	1.333334
465.452698	1390.343262	15266.468750	1540.527588	1.082322
465.808655	1451.782227	15694.266602	1595.140137	1.006551
466.164520	1344.832764	15352.938477	1622.446289	1.981806
466.520355	1381.241089	16413.332031	1561.007324	1.195883
466.876190	1381.241089	16240.391602	1551.905151	1.148545
467.231964	1433.578125	16210.810547	1526.874512	0.631352
467.587677	1392.618774	16948.078125	1615.619751	1.433587
467.943390	1397.169800	16993.589844	1613.344238	1.386052
468.299011	1415.373901	16274.524414	1624.721802	1.408882
468.654633	1429.027100	16406.505859	1597.415649	1.124278
469.010223	1442.680176	16317.759766	1649.752563	1.392076
469.365723	1381.241089	16035.594727	1665.681274	1.940994
469.721191	1388.067749	16003.738281	1670.232300	1.930562
470.076660	1360.761475	15425.755859	1592.864502	1.650218
470.432068	1394.894287	15521.327148	1542.803101	1.047036
470.787445	1340.281738	15530.429688	1545.078613	1.443233
471.142792	1338.006226	15398.449219	1615.619751	1.974429
471.498016	1322.077637	15960.502930	1551.905151	1.570029
471.853271	1383.516602	15516.776367	1499.568237	0.821124
472.208496	1388.067749	15737.501953	1549.629639	1.125911
472.563660	1403.996338	15773.910156	1574.660400	1.187648
472.918762	1399.445313	15971.880859	1563.282837	1.124297
473.273865	1442.680176	16761.486328	1599.691162	1.024956
473.628876	1365.312500	16970.833984	1551.905151	1.195683
473.983917	1358.485962	16861.609375	1674.783325	2.040217
474.338837	1369.863525	16786.517578	1633.823975	1.712177
474.693787	1397.169800	16718.251953	1608.793213	1.381256
475.048645	1378.965576	16882.087891	1615.619751	1.526494
475.403503	1406.271851	16866.160156	1595.140137	1.221667
475.758270	1433.578125	17202.937500	1586.037964	0.966811
476.113037	1410.822876	17107.365234	1611.068726	1.275732
476.467773	1458.608887	17257.548828	1620.170776	1.022612
476.822418	1419.924927	18399.861328	1656.579102	1.393728
477.177063	1369.863525	17712.654297	1626.997314	1.573377
477.531647	1399.445313	18363.453125	1661.130127	1.542588
477.886200	1422.200562	18802.628906	1597.415649	1.008117
478.240723	1281.118164	19405.640625	1640.650513	1.983679
478.595184	1265.189575	19564.927734	1681.609863	2.275553
478.949585	1399.445313	19812.958984	1638.375000	1.297578
479.303986	1390.343262	19956.318359	1611.068726	1.188871
479.658325	1374.414551	20327.226563	1604.242188	1.212631
480.012634	1401.720825	20017.755859	1686.160889	1.527930
480.366913	1344.832764	20780.056641	1613.344238	1.381571
480.721130	1306.148926	21312.527344	1681.609863	1.876706
481.075317	1419.924927	21685.712891	1733.946899	1.549518
481.429474	1394.894287	22743.830078	1670.232300	1.289704
481.783569	1319.802124	24054.531250	1654.303589	1.471324
482.137604	1417.649414	24598.378906	1647.477051	0.991460
482.491669	1394.894287	26844.318359	1745.324463	1.376967
482.845612	1383.516602	29565.841797	1802.212524	1.485669
483.199554	1376.690063	33013.253906	1927.366089	1.740632
483.553436	1413.098389	38042.156250	1941.019287	1.441262
483.907318	1358.485962	44593.382813	2025.213501	1.542105
484.261139	1392.618774	51827.261719	2148.091553	1.497924
484.614899	1365.312500	54972.031250	2243.663574	1.638509
484.968628	1406.271851	55147.246094	2284.622803	1.634416
485.322357	1312.975464	53194.851563	2302.827148	1.907895
485.675964	1376.690063	49699.648438	2132.163086	1.563383
486.029572	1388.067749	45867.671875	2100.305664	1.601269
486.383148	1365.312500	42611.402344	2059.346436	1.682666
486.736694	1347.108276	40135.636719	1986.529663	1.648481
487.090149	1390.343262	39992.277344	1879.580200	1.267390
487.443604	1426.751587	40686.312500	1947.845825	1.327305
487.796997	1417.649414	42342.890625	2027.489014	1.490131
488.150360	1390.343262	44051.808594	2091.203613	1.642842
488.503693	1376.690063	44802.730469	1988.805176	1.409558
488.856964	1363.036987	44299.839844	2002.458252	1.489215
489.210175	1358.485962	41992.460938	1875.029175	1.271210
489.563416	1495.017212	39990.003906	1979.703125	1.259088
489.916565	1408.547363	37557.472656	1893.233276	1.340803
490.269653	1479.088501	34886.007813	1872.753662	1.178394
490.622772	1392.618774	33912.085938	1827.243164	1.336505
490.975769	1390.343262	33445.605469	1863.651489	1.476538
491.328735	1353.934937	34876.906250	1909.161987	1.656258
491.681732	1401.720825	36742.835938	1870.478149	1.326380
492.034607	1390.343262	39123.027344	1966.049927	1.525751
492.387482	1353.934937	39880.777344	1979.703125	1.624239
492.740326	1463.159912	39093.449219	1941.019287	1.269880
493.093079	1390.343262	37502.859375	1972.876587	1.613106
493.445862	1431.302612	34394.496094	1890.957764	1.394450
493.798523	1447.231201	31925.556641	1804.488037	1.172167
494.151215	1385.792114	29688.720703	1834.069824	1.583856
494.503815	1390.343262	27695.363281	1756.702026	1.392733
494.856384	1308.424438	25934.111328	1747.599976	1.783404
495.208923	1353.934937	24691.675781	1722.569214	1.579563
495.561432	1419.924927	24020.398438	1758.977539	1.500201
495.913879	1394.894287	23467.445313	1661.130127	1.206185
496.266296	1331.179688	23574.394531	1667.956787	1.514067
496.618683	1372.139038	23531.160156	1692.987427	1.447936
496.970978	1378.965576	24354.898438	1740.773438	1.574725
497.323273	1403.996338	23949.855469	1670.232300	1.180864
497.675507	1410.822876	24571.074219	1822.692139	1.778345
498.027710	1456.333252	24434.542969	1686.160889	1.000198
498.379852	1449.506714	24052.253906	1638.375000	0.835599
498.731995	1417.649414	24100.041016	1679.334351	1.153692
499.084076	1356.210449	23795.121094	1661.130127	1.358888
499.436096	1356.210449	23783.744141	1720.293701	1.623376
499.788086	1444.955688	22536.757813	1740.773438	1.402525
500.140106	1419.924927	22493.523438	1765.804199	1.641292
500.491943	1349.383789	22240.939453	1743.048950	1.884327
500.843842	1447.231201	21731.224609	1677.058838	1.133049
501.195679	1388.067749	21125.935547	1695.262939	1.556375
501.547455	1356.210449	20841.494141	1697.538574	1.751723
501.899231	1358.485962	20814.189453	1624.721802	1.368421
502.250885	1356.210449	20511.544922	1640.650513	1.484913
502.602600	1442.680176	20466.033203	1747.599976	1.602871
502.954193	1435.853638	20406.871094	1692.987427	1.355403
503.305786	1429.027100	20199.798828	1690.711914	1.394108
503.657379	1388.067749	20648.076172	1647.477051	1.346881
504.008820	1335.730713	20495.615234	1704.365112	1.923991
504.360291	1351.659302	20843.771484	1652.028076	1.540976
504.711700	1363.036987	20805.085938	1706.640625	1.767322
505.063080	1401.720825	20839.218750	1661.130127	1.334582
505.414368	1401.720825	20855.148438	1738.497925	1.731197
505.765656	1410.822876	20666.279297	1679.334351	1.394469
506.116943	1333.455200	20677.658203	1622.446289	1.493942
506.468109	1349.383789	20495.615234	1661.130127	1.628239
506.819305	1342.557251	20388.666016	1649.752563	1.612903
507.170410	1415.373901	20689.035156	1586.037964	0.885478
507.521484	1358.485962	20436.453125	1658.854614	1.574427
507.872559	1390.343262	20356.808594	1695.262939	1.607678
508.223480	1367.588013	20550.228516	1711.191650	1.791222
508.574493	1401.720825	21098.628906	1667.956787	1.351664
508.925385	1438.129150	21073.597656	1731.671387	1.494959
509.276245	1385.792114	21444.507813	1647.477051	1.304595
509.627045	1426.751587	21874.582031	1645.201538	1.068328
509.977814	1403.996338	22272.796875	1706.640625	1.450224
510.328613	1410.822876	22391.125000	1706.640625	1.409979
510.679260	1374.414551	22090.755859	1749.875488	1.812390
511.029999	1397.169800	22409.328125	1733.946899	1.602772
511.380585	1299.322388	22341.062500	1722.569214	2.011463
511.731140	1469.986450	22828.025391	1754.426514	1.331771
512.081726	1392.618774	22909.943359	1768.079712	1.744924
512.432129	1403.996338	23399.179688	1770.355225	1.665632
512.782654	1319.802124	23417.384766	1724.844727	1.832973
513.133057	1415.373901	23483.375000	1774.906250	1.629202
513.483398	1378.965576	23355.945313	1667.956787	1.314972
513.833801	1353.934937	23622.181641	1706.640625	1.583895
514.183960	1408.547363	22989.585938	1706.640625	1.381274
514.534302	1419.924927	23037.373047	1756.702026	1.557895
514.884460	1367.588013	23014.617188	1711.191650	1.587302
515.234619	1403.996338	22814.371094	1788.559326	1.796152
515.584717	1378.965576	22684.666016	1724.844727	1.623411
515.934753	1326.628662	22691.494141	1754.426514	2.002343
516.284851	1392.618774	22946.351563	1740.773438	1.615287
516.634766	1399.445313	22853.054688	1745.324463	1.612219
516.984741	1458.608887	23208.037109	1727.120239	1.234567
517.334595	1365.312500	24020.398438	1740.773438	1.657292
517.684448	1372.139038	24773.595703	1768.079712	1.691949
518.034363	1422.200562	25417.566406	1840.896362	1.744903
518.384094	1378.965576	26621.318359	1813.590088	1.721807
518.733826	1385.792114	27590.689453	1911.437500	2.005905
519.083496	1326.628662	28701.144531	1802.212524	1.737323
519.433167	1363.036987	28894.562500	1815.865601	1.644764
519.782776	1328.904175	29163.074219	1847.722900	1.863963
520.132324	1294.771362	28425.806641	1768.079712	1.744527
520.481873	1351.659302	27827.343750	1849.998413	1.882252
520.831299	1342.557251	27263.015625	1824.967651	1.861118
521.180786	1312.975464	26751.023438	1893.233276	2.281063
521.530151	1426.751587	26327.775391	1822.692139	1.590057
521.879517	1403.996338	25483.556641	1763.528564	1.493101
522.228882	1356.210449	25761.171875	1765.804199	1.678322
522.578064	1397.169800	25155.882813	1834.069824	1.838904
522.927307	1372.139038	25399.363281	1854.549438	2.007766
523.276489	1319.802124	25228.699219	1736.222412	1.741696
523.625610	1317.526489	25836.263672	1754.426514	1.781903
523.974792	1376.690063	25927.283203	1809.039063	1.761053
524.323792	1331.179688	26603.113281	1877.304688	2.160994
524.672852	1399.445313	26967.197266	1877.304688	1.868993
525.021790	1358.485962	27599.791016	1865.927002	1.933749
525.370728	1392.618774	29126.666016	1827.243164	1.567115
525.719604	1360.761475	30755.939453	1868.202637	1.726274
526.068420	1363.036987	32626.417969	1911.437500	1.754131
526.417297	1367.588013	33233.980469	1979.703125	1.920880
526.765991	1431.302612	34374.015625	1945.570313	1.561097
527.114746	1392.618774	35379.796875	1941.019287	1.613551
527.463379	1410.822876	36647.261719	2057.070801	1.834033
527.812012	1417.649414	38394.863281	2068.448486	1.760000
528.160706	1476.812988	41778.562500	2186.775391	1.761617
528.509155	1444.955688	46067.917969	2198.153076	1.687914
528.857727	1401.720825	50678.125000	2321.031250	1.865620
529.206177	1440.404663	54742.203125	2430.256104	1.857070
529.554565	1415.373901	55365.695313	2407.500977	1.838964
529.902893	1353.934937	54284.824219	2366.541748	1.913073
530.251221	1360.761475	51758.996094	2305.102539	1.873758
530.599548	1363.036987	48297.929688	2296.000488	1.987782
530.947876	1347.108276	44943.812500	2220.908203	2.004280
531.296021	1449.506714	41007.160156	2150.367188	1.771744
531.644165	1406.271851	38410.792969	2123.060791	1.937031
531.992249	1438.129150	36474.324219	2011.560425	1.636683
532.340454	1324.353149	35443.511719	2164.020264	2.460984
532.688354	1419.924927	35152.246094	1975.152100	1.645980
533.036438	1365.312500	35969.156250	2047.968750	1.972776
533.384338	1360.761475	37821.429688	2088.927979	1.997129
533.732239	1392.618774	40349.535156	2164.020264	1.980140
534.080139	1388.067749	40649.902344	2157.193604	1.958966
534.427917	1388.067749	40731.824219	2127.612061	1.879699
534.775757	1388.067749	39243.632813	2132.163086	1.965617
535.123474	1381.241089	37316.265625	2038.866699	1.830041
535.471191	1372.139038	34797.265625	1950.121338	1.729185
535.818848	1335.730713	33953.046875	2016.111450	2.085949
536.166382	1399.445313	33120.207031	2016.111450	1.944046
536.513977	1463.159912	32471.681641	2059.346436	1.922654
536.861511	1365.312500	33193.023438	2059.346436	2.180596
537.208984	1399.445313	33161.164063	2011.560425	1.927210
537.556396	1358.485962	33147.511719	1977.427612	1.947029
537.903809	1403.996338	32387.488281	2027.489014	2.012338
538.251160	1435.853638	31188.289063	1972.876587	1.804971
538.598389	1397.169800	30419.162109	2000.182739	2.077779
538.945740	1363.036987	29188.105469	1920.539551	2.003598
539.292969	1401.720825	28601.021484	1884.131226	1.773613
539.640137	1417.649414	28682.939453	1902.335449	1.777667
539.987244	1363.036987	28553.234375	1838.620850	1.749100
540.334351	1419.924927	29197.207031	1904.610962	1.744901
540.681458	1415.373901	31151.878906	1952.396851	1.805938
541.028442	1344.832764	33218.050781	1997.907227	2.048975
541.375366	1401.720825	36224.015625	2079.825928	1.947330
541.722290	1403.996338	39728.316406	2243.663574	2.190951
542.069153	1376.690063	41507.773438	2241.387939	2.154684
542.416016	1367.588013	41865.031250	2245.938965	2.168905
542.762756	1406.271851	41346.214844	2200.428711	1.988378
543.109558	1360.761475	40128.808594	2088.927979	1.878265
543.456299	1381.241089	38199.167969	2164.020264	2.126082
543.802917	1397.169800	36845.234375	2175.397949	2.195404
544.149536	1438.129150	35211.410156	2120.785400	2.021291
544.496094	1367.588013	33224.878906	2038.866699	2.107143
544.842651	1410.822876	31661.595703	2045.693237	2.098691
545.189148	1358.485962	30020.945313	1997.907227	2.230867
545.535583	1383.516602	28767.134766	2025.213501	2.343361
545.882019	1413.098389	28218.734375	1959.223389	2.037351
546.228333	1413.098389	27772.730469	1977.427612	2.140884
546.574707	1297.046875	27501.945313	1870.478149	2.188260
546.920898	1349.383789	27267.566406	1979.703125	2.431958
547.267212	1317.526489	27472.363281	1943.294800	2.392553
547.613342	1369.863525	27547.455078	1984.254150	2.347010
547.959473	1419.924927	26930.789063	1934.192627	2.015877
548.305664	1369.863525	26616.767578	1913.713013	2.154124
548.651611	1438.129150	25319.720703	1890.957764	1.896141
548.997742	1417.649414	24341.246094	1870.478149	1.975382
549.343689	1344.832764	23535.710938	1861.375977	2.327728
549.689575	1388.067749	22391.125000	1906.886475	2.470206
550.035522	1422.200562	21988.357422	1836.345337	2.013720
550.381287	1408.547363	21244.261719	1875.029175	2.351727
550.727173	1388.067749	20868.800781	1797.661377	2.102558
551.072876	1424.476074	20518.371094	1813.590088	2.037898
551.418640	1317.526489	20122.429688	1888.682251	3.037271
551.764282	1419.924927	20252.134766	1900.059814	2.549541
552.109863	1378.965576	19963.144531	1829.518677	2.424391
552.455505	1424.476074	20204.349609	1831.794189	2.168908
552.801025	1372.139038	20190.695313	1877.304688	2.684402
553.146545	1351.659302	20693.585938	1947.845825	3.082354
553.491943	1378.965576	21098.628906	1865.927002	2.469420
553.837341	1424.476074	21094.078125	1809.039063	1.955113
554.182800	1385.792114	20372.738281	1890.957764	2.660595
554.528015	1353.934937	20359.083984	1979.703125	3.292624
554.873352	1310.699951	19949.490234	1909.161987	3.210841
555.218628	1397.169800	19751.521484	1895.508789	2.715100
555.563721	1426.751587	19423.845703	1852.273926	2.364395
555.908875	1324.353149	19203.119141	1890.957764	3.169148
556.254028	1449.506714	18677.474609	1909.161987	2.668076
556.599121	1397.169800	18693.404297	1884.131226	2.815419
556.944031	1433.578125	18352.076172	1845.447388	2.434432
557.289063	1385.792114	18336.146484	1956.947876	3.369580
557.633972	1449.506714	18131.349609	1879.580200	2.578093
557.978882	1397.169800	18329.320313	1893.233276	2.929713
558.323792	1415.373901	17858.287109	1936.468262	3.169112
558.668518	1490.466064	17623.908203	1952.396851	2.863188
559.013306	1363.036987	17883.318359	1950.121338	3.553719
559.358032	1401.720825	17680.796875	1979.703125	3.550461
559.702637	1485.915039	17633.009766	1977.427612	3.043969
560.047363	1394.894287	17760.439453	1927.366089	3.253615
560.391846	1401.720825	17514.683594	1981.978638	3.601186
560.736450	1390.343262	17398.632813	1954.672363	3.525231
561.080933	1374.414551	17992.542969	1991.080688	3.710804
561.425354	1333.455200	17648.939453	1941.019287	3.723850
561.769775	1378.965576	17856.011719	2113.958740	4.460709
562.114136	1385.792114	17812.777344	2082.101563	4.238815
562.458496	1340.281738	18099.492188	2088.927979	4.467073
562.802673	1356.210449	18101.767578	2050.244141	4.144584
563.146912	1390.343262	17835.531250	2084.376953	4.220284
563.491150	1353.934937	17721.755859	2077.550537	4.420965
563.835266	1365.312500	17692.173828	2082.101563	4.390244
564.179443	1413.098389	17612.531250	2082.101563	4.129794
564.523438	1399.445313	17514.683594	2109.407715	4.405535
564.867493	1376.690063	17607.980469	2230.010498	5.257256
565.211426	1472.261963	17837.806641	2179.948975	4.324250
565.555359	1381.241089	18085.839844	2179.948975	4.781365
565.899231	1401.720825	18331.595703	2138.989502	4.354838
566.243042	1397.169800	19016.527344	2234.561523	4.752680
566.586914	1376.690063	19526.244141	2234.561523	4.726680
566.930603	1342.557251	20008.654297	2350.613037	5.400464
567.274292	1381.241089	20095.125000	2316.480225	4.997568
567.617981	1388.067749	20017.755859	2291.449463	4.849151
567.961609	1360.761475	19528.519531	2375.643799	5.586173
568.305237	1365.312500	19164.435547	2498.521729	6.366658
568.648682	1447.231201	19052.935547	2387.021240	5.337986
568.992188	1376.690063	18811.730469	2475.766602	6.303837
569.335632	1367.588013	18493.158203	2498.521729	6.603773
569.679016	1451.782227	18613.759766	2446.184814	5.794219
570.022461	1465.435425	18388.484375	2407.500977	5.566760
570.365662	1363.036987	18556.873047	2439.358398	6.259926
570.708984	1438.129150	18586.453125	2462.113525	5.971338
571.052185	1440.404663	18377.105469	2546.307861	6.529626
571.395386	1399.445313	18670.648438	2610.022461	7.009223
571.738525	1381.241089	19196.292969	2707.869873	7.446673
572.081604	1372.139038	19469.355469	2732.900391	7.519175
572.424683	1390.343262	19683.255859	2778.410889	7.588008
572.767578	1333.455200	20095.125000	2776.135498	7.689509
573.110596	1338.006226	20035.960938	2880.809326	8.251186
573.453552	1342.557251	20047.337891	2839.849854	8.004866
573.796387	1312.975464	20020.031250	2767.033203	7.772777
574.139282	1399.445313	19558.101563	2830.747803	7.882205
574.481995	1435.853638	19471.630859	2908.115479	8.163008
574.824768	1390.343262	19371.507813	2946.799316	8.656036
575.167480	1392.618774	19469.355469	2985.483398	8.811683
575.510132	1388.067749	19037.007813	2955.901611	8.883445
575.852722	1417.649414	18982.394531	3042.371338	9.249903
576.195251	1369.863525	18968.742188	3044.646729	9.516419
576.537842	1424.476074	18736.638672	3217.586426	10.357518
576.880188	1349.383789	18836.761719	3178.902588	10.461938
577.222717	1433.578125	18185.962891	3235.790527	10.757945
577.565063	1397.169800	17851.460938	3099.259277	10.344350
577.907410	1351.659302	17760.439453	3117.463379	10.761337
578.249756	1413.098389	17052.751953	3144.769775	11.072313
578.591919	1312.975464	16661.363281	3067.402100	11.430690
578.934204	1426.751587	16231.290039	3115.187988	11.404857
579.276306	1378.965576	16128.891602	3122.014648	11.817341
579.618469	1376.690063	16092.483398	3185.729004	12.293180
579.960571	1374.414551	15594.144531	3162.973877	12.578012
580.302551	1312.975464	15366.591797	3185.729004	13.325777
580.644531	1408.547363	15209.581055	3192.555664	12.926628
580.986511	1310.699951	15079.875977	3203.933350	13.749795
581.328369	1388.067749	14790.884766	3215.310791	13.633276
581.670227	1392.618774	14699.864258	3267.647949	14.090288
582.012024	1347.108276	14581.537109	3265.372314	14.494498
582.353821	1331.179688	14774.957031	3424.658691	15.572104
582.695496	1383.516602	14754.476563	3370.046387	14.857047
583.037231	1394.894287	14472.312500	3363.219727	15.051331
583.378845	1406.271851	14779.507813	3470.169189	15.433044
583.720398	1390.343262	14613.394531	3565.741211	16.451559
584.062012	1376.690063	14561.057617	3490.648926	16.033831
584.403442	1431.302612	14545.128906	3590.771729	16.467117
584.744934	1385.792114	14499.618164	3545.261475	16.467117
585.086365	1381.241089	14429.077148	3727.302979	17.980469
585.427734	1338.006226	14308.474609	3713.649902	18.315788
585.768982	1376.690063	14024.035156	3729.578613	18.603815
586.110291	1356.210449	14363.086914	3843.354736	19.121763
586.451599	1435.853638	14035.412109	3838.803711	19.071701
586.792725	1335.730713	13921.636719	3834.252441	19.851742
587.133850	1381.241089	14174.218750	3975.334961	20.277483
587.474915	1479.088501	14137.810547	3884.313965	19.000542
587.815979	1376.690063	14090.024414	3998.090088	20.619295
588.157043	1417.649414	14105.953125	4016.294189	20.480633
588.497925	1440.404663	14046.790039	4034.498291	20.577618
588.838867	1401.720825	14456.383789	4027.671875	20.115044
589.179749	1417.649414	14379.015625	4325.765137	22.436800
589.520569	1431.302612	14404.046875	4394.030762	22.838099
589.861450	1408.547363	14827.293945	4416.785645	22.418177
590.202087	1424.476074	14916.039063	4457.745117	22.482712
590.542847	1415.373901	14733.997070	4535.112793	23.423883
590.883484	1431.302612	14806.813477	4648.889160	24.055801
591.224121	1388.067749	14479.138672	4683.021973	25.169476
591.564636	1374.414551	14690.762695	4637.511230	24.504442
591.905151	1419.924927	14510.996094	4603.378418	24.317747
592.245667	1394.894287	14422.250977	4642.062500	24.925764
592.585999	1413.098389	14399.496094	4721.705566	25.477482
592.926453	1417.649414	14385.842773	4683.021973	25.179857
593.266724	1385.792114	14199.250000	4733.083496	26.123249
593.607056	1351.659302	14324.403320	4769.491699	26.346256
593.947388	1322.077637	14192.422852	4871.890137	27.581329
594.287476	1388.067749	14328.954102	4937.880371	27.430983
594.627686	1369.863525	14319.852539	4985.666016	27.921278
594.967773	1403.996338	14649.802734	5074.411621	27.710016
595.307861	1460.884399	15075.325195	5163.156738	27.193718
595.647888	1349.383789	14840.946289	5226.871094	28.740091
595.987854	1376.690063	15088.978516	5336.096191	28.874876
596.327820	1442.680176	15084.427734	5474.902832	29.557962
596.667725	1344.832764	15441.684570	5638.740723	30.460051
597.007568	1408.547363	15953.676758	5879.945801	30.741552
597.347351	1360.761475	16636.332031	5943.660156	30.001488
597.687073	1488.190552	17148.324219	6178.039063	29.947693
598.026794	1360.761475	17066.406250	6130.252930	30.368008
598.366455	1394.894287	16588.546875	6143.906250	31.256552
598.706116	1310.699951	16342.790039	6061.987305	31.607628
599.045654	1385.792114	15985.533203	5911.803223	31.000626
599.385193	1456.333252	15227.785156	5818.506836	31.675482
599.724731	1388.067749	14843.222656	5593.229980	31.253166
600.064087	1394.894287	14536.027344	5702.455078	32.779217
600.403564	1376.690063	14090.024414	5504.484863	32.468235
600.742920	1372.139038	13928.462891	5415.739746	32.203697
601.082153	1392.618774	13819.238281	5590.954590	33.785023
601.421387	1392.618774	13466.532227	5454.423340	33.641163
601.760620	1442.680176	13389.164063	5495.382813	33.923809
602.099854	1401.720825	13744.145508	5668.322266	34.568584
602.438843	1372.139038	13687.257813	5711.557129	35.236507
602.778015	1312.975464	13755.523438	5625.087402	34.656181
603.117065	1388.067749	14119.606445	5852.639648	35.067024
603.456055	1338.006226	14490.516602	6009.650391	35.519028
603.794983	1326.628662	14881.906250	5980.068848	34.329365
604.133850	1315.250977	15257.367188	6387.386719	36.379955
604.472778	1410.822876	15678.337891	6551.224609	36.028713
604.811584	1403.996338	16065.176758	6767.398926	36.582336
605.150330	1394.894287	16615.853516	6922.134277	36.313351
605.489075	1358.485962	16909.394531	7010.879395	36.347675
605.827698	1369.863525	17100.539063	7115.553711	36.525387
606.166382	1335.730713	16659.087891	7022.257324	37.110184
606.504883	1394.894287	16481.597656	6862.970703	36.244343
606.843445	1297.046875	15851.278320	6767.398926	37.585991
607.181946	1367.588013	15277.846680	6451.101563	36.545071
607.520386	1385.792114	15120.835938	6287.264160	35.685886
607.858826	1383.516602	14372.189453	6205.345215	37.123337
608.197083	1319.802124	14322.127930	6259.957520	37.994396
608.535461	1419.924927	14035.412109	6134.804199	37.373741
608.873718	1385.792114	14124.157227	6248.580078	38.174351
609.211914	1429.027100	14301.648438	6396.488770	38.589359
609.550171	1372.139038	14652.078125	6439.723633	38.159695
609.888245	1363.036987	14759.028320	6478.407715	38.185833
610.226318	1381.241089	15209.581055	6692.306641	38.407108
610.564392	1385.792114	15184.550781	6881.174805	39.825195
610.902344	1372.139038	15289.224609	6803.807129	39.028774
611.240295	1401.720825	15232.335938	6972.195801	40.276409
611.578247	1472.261963	15027.539063	6756.021484	38.979355
611.916138	1410.822876	14695.313477	6822.011230	40.733128
612.253845	1353.934937	14278.892578	6553.500000	40.228874
612.591675	1383.516602	13819.238281	6451.101563	40.750229
612.929382	1333.455200	13566.655273	6250.855469	40.197170
613.267090	1319.802124	13127.479492	6289.539551	42.089031
613.604736	1333.455200	13097.897461	5909.527344	38.897484
613.942261	1372.139038	12940.886719	5925.456055	39.358768
614.279785	1399.445313	12754.293945	6041.507813	40.881763
614.617310	1360.761475	12620.038086	5927.731445	40.561840
614.954712	1376.690063	12610.936523	5998.272949	41.138348
615.292175	1419.924927	12469.853516	5688.802246	38.632626
615.629517	1326.628662	12005.647461	5791.200684	41.806953
615.966797	1303.873413	12503.986328	5681.975586	39.089802
616.304138	1365.312500	12187.689453	5597.781250	39.108494
616.641296	1381.241089	12219.546875	5634.189453	39.239975
616.978516	1369.863525	11971.514648	5545.444336	39.386139
617.315552	1372.139038	12117.148438	5700.179688	40.279541
617.652771	1417.649414	11880.494141	5600.056641	39.973900
617.989685	1474.537476	12283.261719	5804.853516	40.063152
618.326721	1447.231201	12292.363281	5677.424316	39.005459
618.663696	1390.343262	12076.188477	5702.455078	40.353493
619.000549	1413.098389	12051.158203	5672.873535	40.042786
619.337463	1378.965576	12203.618164	5547.719727	38.511665
619.674194	1376.690063	11837.258789	5615.985352	40.526436
620.010986	1374.414551	11960.137695	5643.291504	40.326740
620.347778	1429.027100	12001.096680	5545.444336	38.936718
620.684387	1367.588013	11969.239258	5552.270996	39.471992
621.020996	1342.557251	11830.432617	5481.729492	39.466263
621.357605	1426.751587	11846.361328	5588.679199	39.943222
621.694214	1397.169800	11834.983398	5609.158691	40.353172
622.030579	1449.506714	11680.248047	5556.821777	40.146797
622.367065	1385.792114	11725.758789	5429.392578	39.106514
622.703430	1454.057739	11568.748047	5392.984375	38.942635
623.039795	1431.302612	11716.656250	5422.565918	38.805309
623.376160	1474.537476	11457.247070	5379.331055	39.115566
623.712402	1374.414551	11400.359375	5292.861328	39.083065
624.048645	1451.782227	11461.797852	5356.576172	39.008869
624.384766	1408.547363	11461.797852	5324.718750	38.954281
624.720886	1390.343262	11525.512695	5488.556152	40.435562
625.057007	1394.894287	11486.829102	5474.902832	40.428410
625.392944	1397.169800	11580.125000	5472.627441	40.022346
625.729004	1388.067749	11680.248047	5495.382813	39.907139
626.064941	1451.782227	11800.850586	5527.240234	39.379951
626.400818	1356.210449	11757.616211	5495.382813	39.794353
626.736633	1372.139038	12203.618164	5618.260742	39.201675
627.072449	1401.720825	12497.160156	5804.853516	39.684166
627.408264	1353.934937	12481.231445	5711.557129	39.161552
627.743896	1426.751587	12670.099609	6025.579102	40.902653
628.079590	1388.067749	12617.762695	5925.456055	40.405266
628.415161	1363.036987	12574.528320	5768.445313	39.293686
628.750793	1401.720825	12242.301758	5709.281738	39.735519
629.086365	1401.720825	12328.771484	5700.179688	39.337776
629.421753	1349.383789	12087.566406	5691.077637	40.432297
629.757263	1406.271851	12060.259766	5634.189453	39.683895
630.092651	1438.129150	11489.104492	5622.812012	41.634590
630.427917	1358.485962	11618.809570	5433.943848	39.720562
630.763184	1438.129150	11318.440430	5406.637207	40.165817
631.098511	1392.618774	11268.378906	5458.974609	41.175121
631.433716	1344.832764	11111.368164	5240.524414	39.888165
631.768799	1394.894287	10990.765625	5233.697754	40.004742
632.103943	1378.965576	10808.723633	5163.156738	40.130310
632.438965	1433.578125	11074.959961	5195.014160	39.013454
632.773987	1376.690063	10824.652344	5106.268555	39.474953
633.109070	1324.353149	10569.793945	5083.513672	40.659618
633.443848	1406.271851	10606.202148	4928.777832	38.288395
633.778870	1417.649414	10551.589844	4890.094238	38.016941
634.113708	1460.884399	10626.682617	5131.299316	40.044685
634.448425	1401.720825	10776.866211	5024.350098	38.640781
634.783264	1392.618774	10617.580078	4967.461914	38.751854
635.117859	1365.312500	10551.589844	4953.808594	39.063660
635.452576	1374.414551	10836.030273	4890.094238	37.157288
635.787170	1388.067749	10424.161133	4840.032715	38.201958
636.121704	1394.894287	10674.467773	4915.125000	37.935265
636.456177	1419.924927	10374.099609	4885.542969	38.703938
636.790588	1424.476074	10173.853516	4860.512207	39.271782
637.125122	1472.261963	10196.608398	4833.206055	38.523735
637.459412	1408.547363	9937.199219	4669.368652	38.233723
637.793762	1392.618774	9698.269531	4646.613281	39.178082
638.128052	1358.485962	10005.464844	4498.704590	36.315792
638.462280	1315.250977	9853.004883	4582.898926	38.272923
638.796509	1369.863525	9623.177734	4644.337891	39.674660
639.130615	1454.057739	9598.146484	4450.918457	36.797989
639.464722	1356.210449	9566.289063	4409.959473	37.195126
639.798767	1358.485962	9582.217773	4553.316895	38.848923
640.132751	1369.863525	9313.707031	4348.520020	37.496414
640.466736	1367.588013	9420.656250	4384.928711	37.468212
640.800598	1381.241089	9170.348633	4341.693848	38.007599
641.134521	1381.241089	9172.624023	4389.479492	38.609814
641.468262	1394.894287	9261.370117	4350.795898	37.575932
641.802063	1365.312500	9036.092773	4284.805664	38.059925
642.135803	1324.353149	9111.185547	4184.682617	36.732903
642.469421	1422.200562	9111.185547	4282.530273	37.200356
642.803101	1335.730713	8992.858398	4168.753906	36.998508
643.136658	1365.312500	8881.357422	4293.907715	38.964577
643.470215	1319.802124	8915.490234	4177.855957	37.627319
643.803711	1331.179688	8785.786133	4191.509277	38.369961
644.137085	1351.659302	8922.317383	4180.131836	37.360989
644.470581	1374.414551	8785.786133	4355.346680	40.221058
644.803833	1397.169800	8744.826172	4175.580566	37.813564
645.137207	1369.863525	9031.541992	4184.682617	36.738934
645.470459	1310.699951	8701.591797	4214.264648	39.285717
645.803589	1467.710938	8653.805664	4248.397461	38.695377
646.136780	1301.597900	8678.835938	4032.222900	37.014191
646.469849	1410.822876	8785.786133	4259.774902	38.630051
646.802979	1431.302612	8703.867188	4102.764160	36.733418
647.135986	1417.649414	8742.550781	4232.468750	38.428085
647.468994	1394.894287	8840.398438	4189.233887	37.530563
647.801941	1406.271851	8976.929688	4148.274414	36.218815
648.134766	1376.690063	8669.734375	4091.386475	37.223087
648.467651	1397.169800	8951.898438	4225.642090	37.439758
648.800354	1422.200562	8826.745117	4143.723145	36.754761
649.133179	1351.659302	8744.826172	4132.345703	37.611576
649.465881	1363.036987	8813.091797	4116.416992	36.957848
649.798462	1440.404663	8826.745117	4241.570801	37.923599
650.131104	1415.373901	8772.132813	4293.907715	39.127743
650.463623	1369.863525	8867.704102	4059.529053	35.872536
650.796143	1460.884399	8792.612305	4161.927734	36.840477
651.128662	1397.169800	8826.745117	4157.376465	37.151608
651.461060	1454.057739	8751.653320	4023.120850	35.204239
651.793396	1381.241089	8885.909180	4257.499512	38.326256
652.125732	1390.343262	8749.377930	4216.540039	38.404449
652.458008	1338.006226	8674.285156	4296.183105	40.322578
652.790222	1403.996338	8765.305664	4184.682617	37.774342
653.122437	1415.373901	8751.653320	4048.151611	35.887100
653.454529	1474.537476	8888.184570	4209.713379	36.893795
653.786621	1397.169800	8885.909180	4045.875977	35.369186
654.118713	1394.894287	8783.510742	4043.600586	35.848476
654.450623	1365.312500	8710.693359	4118.692871	37.484516
654.782654	1385.792114	8537.753906	4070.906738	37.543751
655.114502	1394.894287	8453.559570	3982.161377	36.653774
655.446350	1408.547363	8439.906250	4009.467773	36.990295
655.778198	1454.057739	8562.785156	4027.671875	36.203587
656.109863	1403.996338	8417.151367	3852.456787	34.912395
656.441650	1388.067749	8328.406250	3866.109863	35.704918
656.773254	1388.067749	8521.825195	3891.140625	35.087719
657.104919	1353.934937	8273.793945	3927.548828	37.191708
657.436462	1390.343262	8162.292969	3872.936523	36.659946
657.767944	1374.414551	8301.099609	4039.049316	38.469120
658.099548	1390.343262	8544.581055	4034.498291	36.959282
658.430908	1376.690063	8749.377930	3932.099854	34.660488
658.762268	1367.588013	8640.152344	3948.028564	35.481850
659.093628	1328.904175	9172.624023	4111.866211	35.480129
659.424927	1344.832764	9177.175781	4173.305176	36.112724
659.756226	1333.455200	9468.442383	4216.540039	35.440559
660.087341	1378.965576	9575.391602	4448.643066	37.451416
660.418518	1335.730713	9739.229492	4430.438965	36.826424
660.749573	1413.098389	9773.362305	4357.622559	35.220470
661.080627	1383.516602	9761.984375	4309.836426	34.926670
661.411621	1401.720825	9479.819336	4378.102051	36.845074
661.742554	1383.516602	9315.982422	4300.734375	36.775673
662.073547	1374.414551	9054.296875	4148.274414	36.118519
662.404297	1426.751587	8986.031250	4109.590332	35.490669
662.735229	1454.057739	8722.071289	4057.253662	35.817158
663.065979	1399.445313	8672.009766	4111.866211	37.296623
663.396667	1360.761475	8608.294922	3868.385254	34.599686
663.727417	1397.169800	8307.926758	3834.252441	35.265060
664.057922	1353.934937	8094.027344	3895.691650	37.711010
664.388611	1381.241089	8123.609375	3729.578613	34.829563
664.719116	1360.761475	7939.291992	3740.956299	36.181255
665.049622	1312.975464	7925.639160	3729.578613	36.545078
665.380005	1344.832764	7891.506348	3736.405273	36.531109
665.710388	1338.006226	7955.220703	3681.792725	35.419537
666.040771	1381.241089	7641.198730	3699.996826	37.041080
666.371033	1438.129150	7764.077148	3713.649902	35.971218
666.701294	1394.894287	7757.250488	3693.170166	36.123028
667.031555	1415.373901	7750.423828	3772.813477	37.212643
667.361633	1369.863525	7775.454590	3747.782715	37.122559
667.691772	1372.139038	7786.832031	3720.476563	36.608727
668.021790	1374.414551	7798.209961	3688.619141	36.025501
668.351807	1324.353149	7743.597168	3670.415039	36.547325
668.681763	1410.822876	7707.188965	3731.854004	36.863029
669.011719	1435.853638	7725.393066	3725.027588	36.396526
669.341614	1285.669312	7618.443848	3615.802490	36.794827
669.671387	1378.965576	7839.168945	3643.108887	35.047558
670.001221	1406.271851	7714.015625	3759.160400	37.301590
670.330933	1365.312500	7839.168945	3772.813477	37.188049
670.660583	1390.343262	7780.005859	3572.567627	34.152420
670.990173	1331.179688	7627.545898	3572.567627	35.598118
671.319763	1374.414551	7836.893555	3613.527100	34.647888
671.649292	1403.996338	7493.290039	3531.608398	34.940208
671.978821	1292.495850	7545.626953	3556.638916	36.208153
672.308289	1372.139038	7527.422852	3499.750977	34.565617
672.637695	1363.036987	7393.166992	3415.556641	34.037735
672.966980	1328.904175	7409.095703	3638.557861	37.986530
673.296326	1419.924927	7363.585449	3529.332764	35.490044
673.625610	1385.792114	7397.718262	3536.159424	35.768356
673.954773	1403.996338	7293.043945	3638.557861	37.944359
674.283936	1376.690063	7331.728027	3490.648926	35.498665
674.613037	1424.476074	7543.351563	3413.281250	32.502789
674.942078	1353.934937	7349.932129	3508.853027	35.939278
675.271118	1324.353149	7176.992676	3465.618164	36.586315
675.600098	1433.578125	7265.737793	3474.720215	34.998051
675.928955	1410.822876	7254.360352	3399.628174	34.034267
676.257813	1488.190552	7038.186035	3376.872803	34.030338
676.586670	1394.894287	7227.054199	3438.312012	35.037064
676.915466	1463.159912	7122.379883	3297.229736	32.408527
677.244141	1433.578125	7140.584473	3219.861816	31.299837
677.572876	1403.996338	7045.012207	3304.056152	33.682938
677.901489	1388.067749	7222.502930	3370.046387	33.970360
678.230042	1319.802124	7017.706055	3288.127441	34.544727
678.558594	1315.250977	7131.482422	3360.944336	35.172146
678.887085	1403.996338	7133.757813	3308.607178	33.240665
679.215515	1403.996338	7395.442383	3431.485352	33.839725
679.543945	1419.924927	7211.125488	3370.046387	33.673870
679.872253	1433.578125	7436.401855	3360.944336	32.107658
680.200562	1417.649414	7347.656738	3451.965088	34.305450
680.528809	1408.547363	7620.719238	3545.261475	34.395607
680.856995	1351.659302	7748.148438	3627.180176	35.574532
681.185120	1417.649414	7739.046387	3556.638916	33.837292
681.513306	1278.842651	7766.352539	3620.353516	36.092598
681.841309	1324.353149	7723.117676	3513.404053	34.210522
682.169373	1413.098389	7793.658691	3547.536865	33.452209
682.497314	1449.506714	7918.812500	3659.037354	34.154064
682.825134	1374.414551	7707.188965	3577.118652	34.782608
683.153076	1374.414551	7673.056152	3506.577637	33.851158
683.480896	1399.445313	7399.993652	3440.587402	34.015926
683.808655	1385.792114	7527.422852	3490.648926	34.271954
684.136414	1394.894287	7227.054199	3440.587402	35.076080
684.464050	1413.098389	7297.595215	3374.597412	33.333332
684.791626	1335.730713	7122.379883	3324.535889	34.368855
685.119263	1381.241089	7097.349609	3203.933350	31.886944
685.446838	1378.965576	7031.359375	3253.994629	33.172302
685.774292	1385.792114	6910.756836	3263.096924	33.978584
686.101685	1356.210449	6844.766602	3206.208740	33.706467
686.429077	1388.067749	6872.072754	3115.187988	31.493776
686.756348	1406.271851	6874.348145	3174.351563	32.334583
687.083679	1399.445313	6799.256348	3142.494141	32.279812
687.410950	1426.751587	6728.714844	3185.729004	33.175964
687.738159	1331.179688	6653.623047	3192.555664	34.972210
688.065308	1444.955688	6778.776367	3258.545898	34.001709
688.392395	1435.853638	6928.960938	3304.056152	34.009941
688.719421	1440.404663	6712.786133	3197.106689	33.318947
689.046448	1376.690063	6833.389160	3117.463379	31.901581
689.373413	1383.516602	7017.706055	3308.607178	34.168015
689.700317	1356.210449	6617.214355	3140.218750	33.910034
690.027100	1383.516602	6651.347168	3147.045166	33.477322
690.353943	1342.557251	6553.500000	3085.606201	33.449780
690.680725	1426.751587	6678.653320	3019.616211	30.329292
691.007446	1358.485962	6421.519531	3017.340576	32.764046
691.334106	1344.832764	6412.417480	3049.197754	33.632687
691.660645	1419.924927	6498.887207	3024.167236	31.586025
691.987244	1401.720825	6112.048828	2873.982666	31.256035
692.313721	1429.027100	6164.385742	2976.381104	32.676598
692.640259	1394.894287	6259.957520	2992.309814	32.834423
692.966675	1360.761475	6121.150879	2937.697266	33.126190
693.293030	1372.139038	6112.048828	3028.718262	34.949596
693.619324	1426.751587	6027.854492	2828.472412	30.464888
693.945618	1399.445313	6014.201660	2937.697266	33.333328
694.271851	1410.822876	5961.864258	2937.697266	33.549999
694.598083	1449.506714	6046.058594	3044.646729	34.702972
694.924194	1390.343262	5930.007324	2873.982666	32.681702
695.250244	1424.476074	5845.812988	2951.350586	34.534225
695.576294	1408.547363	5945.936035	2914.942139	33.199596
695.902283	1408.547363	6002.823730	2821.645752	30.757801
696.228210	1408.547363	5995.997070	2864.880615	31.746033
696.554138	1363.036987	5777.547363	2905.840088	34.948456
696.879944	1378.965576	6068.813965	2855.778564	31.489567
697.205750	1367.588013	6077.916016	2837.574463	31.207729
697.531433	1326.628662	6162.110352	3017.340576	34.964706
697.857178	1413.098389	6046.058594	2853.503174	31.090378
698.182739	1381.241089	6187.141113	2962.728027	32.907196
698.508423	1378.965576	6496.611816	3042.371338	32.503334
698.833984	1399.445313	6760.572266	3172.075928	33.064514
699.159485	1442.680176	7004.053223	3106.085938	29.909983
699.484924	1338.006226	7138.308594	3292.678711	33.699493
699.810303	1442.680176	7420.473145	3285.852051	30.833652
700.135681	1451.782227	7470.534668	3326.811523	31.153122
700.460999	1331.179688	7493.290039	3349.566650	32.754799
700.786255	1399.445313	7222.502930	3381.423828	34.036732
701.111450	1399.445313	7126.931152	3190.280273	31.267384
701.436646	1397.169800	6892.552734	3158.422852	32.049686
701.761719	1349.383789	6592.183594	3099.259277	33.376736
702.086792	1388.067749	6514.815918	3094.708252	33.288948
702.411865	1294.771362	6287.264160	2996.860840	34.092979
702.736816	1367.588013	6059.711914	2894.462402	32.541222
703.061646	1356.210449	5838.986328	2894.462402	34.314720
703.386536	1406.271851	5804.853516	2826.196777	32.281429
703.711365	1317.526489	5604.607910	2719.247314	32.696388
704.036194	1351.659302	5545.444336	2687.390137	31.850245
704.360901	1385.792114	5604.607910	2737.451416	32.038830
704.685547	1392.618774	5509.035645	2671.461426	31.066889
705.010132	1422.200562	5365.678223	2689.665527	32.140793
705.334717	1374.414551	5443.045898	2694.216553	32.438477
705.659302	1390.343262	5358.851563	2605.471436	30.619268
705.983765	1401.720825	5094.891113	2607.746826	32.655575
706.308228	1344.832764	5377.055664	2637.328613	32.054176
706.632568	1397.169800	5226.871094	2719.247314	34.521690
706.956909	1372.139038	5217.769043	2714.696289	34.911243
707.281189	1424.476074	5365.678223	2591.818115	29.618933
707.605408	1406.271851	5097.166504	2710.145264	35.326759
707.929626	1331.179688	5201.840332	2666.910400	34.509113
708.253784	1372.139038	5290.585938	2664.634766	32.984898
708.577820	1444.955688	5122.197266	2566.787354	30.507423
708.901855	1360.761475	5165.432129	2751.104736	36.543064
709.225830	1413.098389	5240.524414	2676.012451	32.996433
709.549805	1381.241089	5301.963379	2707.869873	33.836338
709.873718	1406.271851	5315.616699	2671.461426	32.363213
710.197510	1392.618774	5315.616699	2635.052979	31.670528
710.521362	1392.618774	5461.250000	2562.236328	28.747200
710.845093	1431.302612	5431.667969	2621.399902	29.749716
711.168701	1429.027100	5299.687988	2703.318604	32.921806
711.492432	1401.720825	5374.780273	2673.737061	32.016037
711.816040	1435.853638	5515.862305	2728.349365	31.678749
712.139587	1363.036987	5524.964355	2796.614990	34.445053
712.463074	1394.894287	5631.914063	2657.808350	29.806662
712.786499	1481.364014	5700.179688	2685.114502	28.532902
713.109924	1397.169800	5584.127930	2582.716064	28.315218
713.433350	1390.343262	5529.515625	2707.869873	31.830677
713.756592	1413.098389	5515.862305	2650.981689	30.171938
714.079834	1435.853638	5397.535156	2685.114502	31.533600
714.403015	1367.588013	5372.504395	2607.746826	30.965910
714.726196	1406.271851	5347.474121	2771.584229	34.642029
715.049255	1290.220337	5324.718750	2664.634766	34.066547
715.372375	1410.822876	5233.697754	2687.390137	33.392860
715.695435	1419.924927	5213.218262	2707.869873	33.953213
716.018311	1369.863525	5299.687988	2571.338623	30.573252
716.341248	1381.241089	5238.249023	2605.471436	31.740417
716.664063	1392.618774	5251.901855	2596.369141	31.191034
716.987000	1333.455200	5324.718750	2516.726074	29.646523
717.309692	1363.036987	5099.441895	2525.828125	31.120588
717.632385	1433.578125	5169.983398	2523.552490	29.171738
717.955078	1328.904175	5281.483887	2573.614014	31.491076
718.277649	1353.934937	5060.758301	2459.837891	29.834251
718.600220	1388.067749	4912.849609	2439.358398	29.825695
718.922791	1319.802124	4985.666016	2430.256104	30.291742
719.245300	1394.894287	4826.379395	2443.909424	30.570295
719.567688	1413.098389	4944.706543	2455.286865	29.510309
719.890015	1408.547363	4617.031738	2361.990479	29.716309
720.212341	1417.649414	4737.634277	2455.286865	31.254282
720.534607	1406.271851	4653.439941	2382.470215	30.063070
720.856873	1410.822876	4535.112793	2348.337402	30.007282
721.179016	1385.792114	4403.132813	2348.337402	31.900450
721.501160	1383.516602	4382.652832	2293.724854	30.349012
721.823242	1365.312500	4705.776855	2364.266113	29.904633
722.145264	1342.557251	4432.714355	2257.316650	29.602358
722.467224	1429.027100	4475.949219	2282.347412	28.005978
722.789185	1312.975464	4403.132813	2255.041016	30.486008
723.111023	1365.312500	4271.152344	2277.796387	31.401726
723.432861	1353.934937	4303.009766	2166.295898	27.546299
723.754578	1374.414551	4357.622559	2282.347412	30.434782
724.076294	1338.006226	4339.417969	2243.663574	30.174379
724.397949	1367.588013	4359.897949	2332.408936	32.243347
724.719666	1399.445313	4277.979004	2243.663574	29.328066
725.041260	1388.067749	4207.437988	2266.418701	31.154156
725.362732	1367.588013	4366.724609	2282.347412	30.500757
725.684265	1392.618774	4246.121582	2209.530762	28.628391
726.005676	1444.955688	4328.040527	2270.969727	28.650354
726.327087	1403.996338	4262.050293	2280.071777	30.652866
726.648438	1394.894287	4328.040527	2239.112549	28.782003
726.969666	1465.435425	4380.377441	2252.765625	27.010151
727.290894	1415.373901	4316.663086	2289.173828	30.117645
727.612061	1408.547363	4305.285156	2393.847900	34.014145
727.933228	1349.383789	4471.398438	2282.347412	29.883385
728.254395	1378.965576	4544.214844	2359.715088	30.984905
728.575378	1451.782227	4626.133789	2375.643799	29.103947
728.896301	1306.148926	4466.847168	2314.204590	31.893448
729.217285	1340.281738	4592.000977	2387.021240	32.190342
729.538147	1365.312500	4687.572754	2305.102539	28.287670
729.858948	1351.659302	4564.694824	2375.643799	31.869690
730.179810	1301.597900	4630.685059	2359.715088	31.784004
730.500549	1385.792114	4621.582520	2327.857666	29.113922
730.821228	1360.761475	4453.194336	2307.378174	30.610744
731.141846	1360.761475	4598.827637	2346.062012	30.428673
731.462402	1372.139038	4526.010742	2296.000488	29.292933
731.782898	1410.822876	4610.205078	2355.164063	29.516359
732.103455	1431.302612	4537.388672	2350.613037	29.597071
732.423889	1449.506714	4778.593750	2336.959961	26.657557
732.744263	1376.690063	4617.031738	2350.613037	30.056181
733.064636	1410.822876	4612.480469	2400.674561	30.916849
733.384888	1344.832764	4541.939453	2430.256104	33.950176
733.705200	1499.568237	4623.858398	2375.643799	28.040789
734.025330	1340.281738	4774.042480	2343.786377	29.224653
734.345520	1367.588013	4664.817871	2412.052002	31.677013
734.665527	1369.863525	4596.552246	2264.143311	27.715094
734.985596	1456.333252	4541.939453	2384.745850	30.088499
735.305542	1356.210449	4412.234863	2323.306641	31.645565
735.625549	1403.996338	4503.255859	2168.571289	24.669601
735.945435	1447.231201	4227.917480	2316.480225	31.260233
736.265259	1356.210449	4371.275391	2216.357178	28.528299
736.585083	1344.832764	4139.172363	2298.276123	34.120525
736.904785	1413.098389	4150.549805	2248.214600	30.507071
737.224426	1367.588013	4230.193359	2182.224365	28.457863
737.544128	1342.557251	4118.692871	2164.020264	29.590160
737.863708	1406.271851	4152.825684	2138.989502	26.677711
738.183289	1369.863525	4141.447754	2200.428711	29.967163
738.502808	1383.516602	4157.376465	2193.602051	29.204268
738.822205	1388.067749	4248.397461	2264.143311	30.628483
739.141541	1388.067749	4239.295410	2184.500000	27.932961
739.460938	1388.067749	4218.815430	2277.796387	31.430872
739.780212	1383.516602	4293.907715	2220.908203	28.772476
740.099426	1369.863525	4469.123047	2300.551514	30.029366
740.418640	1365.312500	4246.121582	2282.347412	31.832548
740.737793	1442.680176	4289.356934	2275.520752	29.256592
741.056885	1401.720825	4227.917480	2298.276123	31.723032
741.375977	1294.771362	4196.060547	2250.489990	32.941174
741.694946	1326.628662	4177.855957	2286.898438	33.679173
742.013855	1374.414551	4111.866211	2152.642578	28.428923
742.332703	1383.516602	4125.519043	2216.357178	30.373444
742.651550	1415.373901	4034.498291	2175.397949	29.018248
742.970398	1378.965576	4054.978027	2161.744873	29.251705
743.289124	1385.792114	4136.896973	2195.877686	29.445826
743.607788	1460.884399	3943.477539	2091.203613	25.389547
743.926453	1392.618774	4004.916504	2200.428711	30.923347
744.245056	1399.445313	3959.406250	2166.295898	29.955559
744.563599	1447.231201	3829.701416	2134.438477	28.844318
744.882141	1367.588013	3913.895752	1997.907227	24.754244
745.200500	1403.996338	3845.630127	2107.132324	28.797766
745.518860	1419.924927	3941.202148	2093.479248	26.714806
745.837219	1394.894287	3843.354736	2211.806152	33.364307
746.155518	1363.036987	3750.058350	2132.163086	32.221165
746.473755	1458.608887	3786.466553	2072.999512	26.392963
746.791992	1358.485962	3863.834229	2054.795166	27.792912
747.110107	1399.445313	3820.599365	2088.927979	28.477438
747.428162	1363.036987	3770.538086	2070.723877	29.395082
747.746216	1328.904175	3763.711426	2091.203613	31.308413
748.064148	1317.526489	3718.200928	2100.305664	32.606636
748.382080	1406.271851	3822.875000	2029.764526	25.800377
748.700073	1440.404663	3825.150391	2113.958740	28.244274
749.017822	1358.485962	3761.435791	2059.346436	29.166672
749.335632	1403.996338	3761.435791	2075.274902	28.474901
749.653320	1349.383789	3872.936523	2052.519775	27.862940
749.971008	1376.690063	3909.344727	2082.101563	27.852652
750.288696	1510.945801	3847.905762	2177.673340	28.529696
750.606262	1422.200562	3845.630127	2011.560425	24.319248
750.923828	1363.036987	3697.721191	2061.621826	29.922029
751.241272	1388.067749	3850.181152	2047.968750	26.802219
751.558716	1469.986450	3786.466553	2059.346436	25.442049
751.876038	1460.884399	3775.089111	2100.305664	27.630283
752.193481	1399.445313	3756.884766	2070.723877	28.474901
752.510681	1363.036987	3731.854004	2027.489014	28.049953
752.827942	1351.659302	3725.027588	2009.284912	27.708538
753.145081	1388.067749	3779.640137	1966.049927	24.167456
753.462219	1388.067749	3702.272461	2013.835938	27.040314
753.779297	1338.006226	3802.395264	2091.203613	30.563250
754.096375	1392.618774	3759.160400	2022.937988	26.634615
754.413330	1392.618774	3634.006836	2041.142212	28.934008
754.730286	1353.934937	3706.823486	2077.550537	30.754349
755.047119	1372.139038	3636.282227	2047.968750	29.849249
755.363892	1367.588013	3759.160400	2004.733887	26.641296
755.680725	1406.271851	3636.282227	1936.468262	23.775515
755.997498	1363.036987	3661.312988	2047.968750	29.801983
756.314148	1363.036987	3734.129639	2004.733887	27.063339
756.630737	1419.924927	3599.874023	1975.152100	25.469730
756.947327	1376.690063	3588.496338	2025.213501	29.320990
757.263855	1365.312500	3740.956299	2011.560425	27.203064
757.580261	1356.210449	3568.016602	2082.101563	32.818932
757.896729	1401.720825	3672.690674	2020.662476	27.254509
758.213074	1367.588013	3608.976074	2075.274902	31.573597
758.529419	1338.006226	3597.598389	2075.274902	32.628395
758.845642	1415.373901	3704.547852	2025.213501	26.640162
759.161865	1335.730713	3690.894775	2086.652588	31.884058
759.478149	1356.210449	3720.476563	2025.213501	28.296436
759.794189	1440.404663	3845.630127	2157.193604	29.801319
760.110229	1353.934937	3740.956299	2054.795166	29.361286
760.426270	1431.302612	3756.884766	2013.835938	25.048925
760.742249	1447.231201	3822.875000	1934.192627	20.498083
761.058105	1394.894287	3765.986816	2063.897461	28.214975
761.374023	1410.822876	3743.231689	2025.213501	26.341465
761.689819	1488.190552	3759.160400	2084.376953	26.252502
762.005554	1408.547363	3786.466553	2027.489014	26.028708
762.321289	1456.333252	3877.487549	2011.560425	22.932333
762.636902	1433.578125	3888.864990	2036.591064	24.559776
762.952515	1397.169800	3763.711426	2084.376953	29.038458
763.268127	1360.761475	3886.589600	2102.581299	29.369371
763.583618	1388.067749	3929.824463	2161.744873	30.438675
763.899048	1401.720825	4186.958496	2230.010498	29.738562
764.214478	1481.364014	4505.531250	2250.489990	25.432653
764.529785	1413.098389	5042.554199	2368.817139	26.332289
764.845093	1369.863525	5192.738281	2530.379150	30.357145
765.160400	1326.628662	5144.952637	2475.766602	30.095350
765.475586	1376.690063	5049.380859	2457.562500	29.429987
765.790771	1381.241089	4910.573730	2364.266113	27.853001
766.105835	1394.894287	4799.073242	2364.266113	28.475937
766.420837	1319.802124	4539.664063	2280.071777	29.823318
766.735840	1392.618774	4380.377441	2150.367188	25.361767
767.050842	1381.241089	4339.417969	2227.734863	28.615389
767.365662	1440.404663	4064.080078	2184.500000	28.360802
767.680542	1331.179688	4141.447754	2143.540527	28.906881
767.995300	1399.445313	3811.497314	2086.652588	28.490566
768.309998	1417.649414	3834.252441	2029.764526	25.329569
768.624817	1431.302612	3836.528076	2070.723877	26.584669
768.939392	1358.485962	3743.231689	2013.835938	27.480917
769.254028	1360.761475	3709.098877	2075.274902	30.426353
769.568481	1406.271851	3722.751953	2000.182739	25.638508
769.882935	1347.108276	3636.282227	1952.396851	26.441355
770.197388	1408.547363	3659.037354	2000.182739	26.289181
770.511841	1381.241089	3542.985840	1991.080688	28.210529
770.826172	1344.832764	3602.149414	1954.672363	27.016130
771.140442	1369.863525	3572.567627	1904.610962	24.276861
771.454651	1349.383789	3476.995850	1981.978638	29.732622
771.768860	1372.139038	3451.965088	1961.498901	28.336977
772.082886	1394.894287	3388.250488	1904.610962	25.570778
772.397034	1374.414551	3388.250488	1956.947876	28.926554
772.711060	1347.108276	3454.240479	1884.131226	25.485962
773.025024	1426.751587	3304.056152	1877.304688	24.000000
773.338928	1433.578125	3267.647949	1922.815063	26.674934
773.652771	1390.343262	3329.086914	1852.273926	23.826288
773.966614	1378.965576	3319.984863	1979.703125	30.949593
774.280457	1326.628662	3374.597412	1856.824951	25.888885
774.594116	1388.067749	3376.872803	1947.845825	28.146452
774.907776	1440.404663	3315.433838	1966.049927	28.033978
775.221375	1406.271851	3288.127441	1849.998413	23.579205
775.534912	1399.445313	3181.177979	1913.713013	28.863348
775.848450	1410.822876	3379.148438	1856.824951	22.658958
776.161926	1356.210449	3279.025391	1847.722900	25.562130
776.475342	1353.934937	3190.280273	1854.549438	27.261457
776.788696	1353.934937	3201.657715	1886.406738	28.817732
777.101990	1376.690063	3137.943115	1881.855713	28.682173
777.415283	1390.343262	3181.177979	1829.518677	24.523504
777.728516	1431.302612	3222.137451	1861.375977	24.015244
778.041626	1374.414551	3242.617188	1818.141113	23.751522
778.354736	1335.730713	3133.392090	1768.079712	24.050636
778.667725	1344.832764	3144.769775	1859.100464	28.571428
778.980774	1353.934937	3190.280273	1836.345337	26.270136
779.293640	1460.884399	3144.769775	1847.722900	22.972971
779.606567	1433.578125	3124.290039	1831.794189	23.553160
779.919434	1347.108276	3137.943115	1779.457275	24.142315
780.232239	1449.506714	3065.126465	1831.794189	23.661970
780.544983	1335.730713	3099.259277	1824.967651	27.741934
780.857666	1429.027100	3147.045166	1827.243164	23.178806
781.170227	1367.588013	3092.432861	1875.029175	29.419525
781.482849	1438.129150	3081.055176	1818.141113	23.130194
781.795410	1419.924927	3160.698486	1795.385864	21.568626
782.107910	1333.455200	3015.064941	1879.580200	32.476322
782.420288	1294.771362	3099.259277	1895.508789	33.291298
782.732666	1376.690063	3201.657715	1802.212524	23.316713
783.044983	1469.986450	3056.024414	1802.212524	20.946918
783.357300	1367.588013	3024.167236	1781.732788	24.999998
783.669495	1408.547363	3003.687500	1754.426514	21.683308
783.981689	1394.894287	2974.105713	1754.426514	22.766567
784.293762	1358.485962	2958.177002	1824.967651	29.160736
784.605835	1358.485962	2894.462402	1763.528564	26.370365
784.917908	1351.659302	2969.554688	1724.844727	23.066103
785.229858	1394.894287	2844.401123	1704.365112	21.350077
785.541748	1458.608887	2930.870850	1708.916138	17.001543
785.853577	1376.690063	2826.196777	1729.395752	24.332808
786.165405	1485.915039	2878.533936	1681.609863	14.052288
786.477173	1385.792114	2917.217773	1718.018188	21.693909
786.788879	1408.547363	2835.298828	1740.773438	23.285490
787.100525	1438.129150	2842.125488	1695.262939	18.314421
787.412109	1378.965576	2798.890625	1718.018188	23.878204
787.723694	1369.863525	2846.676514	1765.804199	26.810482
788.035156	1451.782227	2883.084961	1708.916138	17.965027
788.346558	1451.782227	2903.564453	1763.528564	21.473354
788.658081	1383.516602	2844.401123	1708.916138	22.274145
788.969360	1408.547363	2971.830078	1765.804199	22.852989
789.280640	1392.618774	3001.411865	1770.355225	23.479492
789.591919	1424.476074	3185.729004	1824.967651	22.739016
789.903076	1413.098389	3026.442627	1863.651489	27.926657
790.214172	1353.934937	3137.943115	1733.946899	21.301022
790.525269	1363.036987	3056.024414	1786.283813	24.999998
790.836365	1292.495850	2983.207764	1795.385864	29.744276
791.147339	1410.822876	2942.248291	1667.956787	16.790495
791.458191	1392.618774	2949.074951	1820.416626	27.485376
791.769104	1415.373901	2962.728027	1765.804199	22.647066
792.079895	1426.751587	2864.880615	1658.854614	16.139235
792.390686	1392.618774	2846.676514	1761.253052	25.352108
792.701416	1365.312500	2782.961914	1658.854614	20.706255
793.012085	1424.476074	2728.349365	1708.916138	21.815008
793.322693	1408.547363	2742.002686	1777.181763	27.645050
793.633240	1383.516602	2701.043213	1747.599976	27.633854
793.943787	1390.343262	2669.185791	1713.467163	25.266903
794.254272	1415.373901	2653.257324	1670.232300	20.588240
794.564636	1451.782227	2712.420898	1649.752563	15.703972
794.875000	1440.404663	2753.380127	1683.885376	18.544193
795.185303	1392.618774	2694.216553	1704.365112	23.951050
795.495544	1358.485962	2723.798340	1738.497925	27.833334
795.805786	1444.955688	2703.318604	1715.742676	21.518990
796.115906	1353.934937	2735.176025	1692.987427	24.546946
796.426025	1374.414551	2653.257324	1763.528564	30.427040
796.736023	1363.036987	2762.482178	1658.854614	21.138206
797.045959	1394.894287	2828.472412	1629.272949	16.349207
797.355896	1390.343262	2896.738037	1674.783325	18.882174
797.665833	1401.720825	2835.298828	1743.048950	23.809526
797.975708	1417.649414	2901.289063	1695.262939	18.711655
798.285461	1463.159912	2807.992676	1708.916138	18.274111
798.595154	1406.271851	2762.482178	1788.559326	28.187920
798.904846	1378.965576	2778.410889	1736.222412	25.528460
799.214478	1508.670288	2739.727051	1681.609863	14.048059
799.524109	1331.179688	2755.655762	1702.089600	26.038340
799.833557	1413.098389	2812.543701	1665.681274	18.048786
800.143005	1374.414551	2807.992676	1736.222412	25.238098
800.452393	1399.445313	2632.777588	1722.569214	26.199257
800.761780	1349.383789	2610.022461	1722.569214	29.602886
801.071106	1385.792114	2782.961914	1683.885376	21.335506
801.380371	1322.077637	2653.257324	1667.956787	25.982904
801.689575	1383.516602	2628.226563	1690.711914	24.680073
801.998718	1451.782227	2612.297852	1692.987427	20.784313
802.307800	1406.271851	2635.052979	1640.650513	19.074078
802.616882	1381.241089	2655.532715	1570.109375	14.821433
802.925903	1349.383789	2632.777588	1629.272949	21.808517
803.234863	1422.200562	2632.777588	1606.517700	15.225560
803.543701	1401.720825	2434.807373	1645.201538	23.568279
803.852539	1383.516602	2655.532715	1640.650513	20.214674
804.161316	1417.649414	2685.114502	1692.987427	21.723518
804.470032	1374.414551	2594.093750	1526.874512	12.500005
804.778809	1403.996338	2632.777588	1699.814087	24.074078
805.087341	1308.424438	2594.093750	1554.180664	19.115042
805.395935	1367.588013	2523.552490	1604.242188	20.472443
805.704468	1392.618774	2503.072998	1686.160889	26.434418
806.012939	1426.751587	2589.542725	1590.588989	14.090012
806.321350	1417.649414	2603.195801	1661.130127	20.537426
806.629761	1399.445313	2539.481201	1702.089600	26.546909
806.938049	1303.873413	2639.604248	1702.089600	29.812607
807.246277	1442.680176	2696.492188	1649.752563	16.515425
807.554504	1342.557251	2669.185791	1622.446289	21.097771
807.862671	1401.720825	2698.767578	1702.089600	23.157898
808.170715	1360.761475	2605.471436	1688.436401	26.325403
808.478821	1406.271851	2625.950928	1704.365112	24.440304
808.786804	1397.169800	2539.481201	1697.538574	26.294825
809.094727	1392.618774	2564.511963	1601.966675	17.864077
809.402649	1369.863525	2514.450439	1679.334351	27.037775
809.710510	1429.027100	2530.379150	1642.926025	19.421486
810.018311	1333.455200	2464.388916	1665.681274	29.376265
810.326050	1442.680176	2550.858887	1633.823975	17.248463
810.633667	1390.343262	2584.991699	1638.375000	20.761902
810.941345	1388.067749	2516.726074	1604.242188	19.153223
811.248901	1374.414551	2373.368164	1699.814087	32.574039
811.556396	1476.812988	2407.500977	1595.140137	12.713943
811.863892	1385.792114	2396.123291	1626.997314	23.873875
812.171326	1378.965576	2466.664551	1617.895264	21.966526
812.478699	1383.516602	2291.449463	1615.619751	25.563911
812.786011	1385.792114	2380.194824	1570.109375	18.535475
813.093262	1397.169800	2475.766602	1615.619751	20.253160
813.400391	1312.975464	2400.674561	1576.935913	24.267782
813.707642	1324.353149	2382.470215	1656.579102	31.397844
814.014709	1349.383789	2393.847900	1649.752563	28.758171
814.321716	1422.200562	2448.460449	1563.282837	13.747227
814.628723	1406.271851	2361.990479	1574.660400	17.619051
814.935669	1310.699951	2375.643799	1581.486938	25.427349
815.242554	1442.680176	2434.807373	1638.375000	19.724771
815.549438	1392.618774	2396.123291	1515.496826	12.244893
815.856201	1413.098389	2357.439453	1601.966675	20.000008
816.162964	1433.578125	2373.368164	1601.966675	17.917677
816.469604	1415.373901	2407.500977	1649.752563	23.623856
816.776184	1385.792114	2427.980713	1688.436401	29.039301
817.082825	1369.863525	2425.705078	1570.109375	18.965521
817.389343	1397.169800	2416.603027	1604.242188	20.312502
817.695801	1383.516602	2384.745850	1567.833862	18.409098
818.002197	1376.690063	2364.266113	1520.047852	14.516127
818.308533	1374.414551	2368.817139	1654.303589	28.146452
818.614868	1351.659302	2380.194824	1631.548462	27.212397
818.921143	1392.618774	2450.735840	1574.660400	17.204300
819.227356	1358.485962	2364.266113	1647.477051	28.733028
819.533447	1369.863525	2425.705078	1633.823975	25.000006
819.839539	1394.894287	2443.909424	1636.099487	22.993490
820.145569	1340.281738	2564.511963	1647.477051	25.092936
820.451538	1422.200562	2580.440674	1686.160889	22.789776
820.757568	1394.894287	2742.002686	1690.711914	21.959452
821.063416	1467.710938	2817.094727	1724.844727	19.055645
821.369263	1406.271851	3019.616211	1692.987427	17.771505
821.675049	1426.751587	3069.677490	1804.488037	22.991692
821.980713	1347.108276	3128.841064	1795.385864	25.159641
822.286438	1383.516602	3285.852051	1824.967651	23.205742
822.592102	1340.281738	3816.048340	1988.805176	26.194853
822.897583	1367.588013	4931.053711	2393.847900	28.799488
823.203125	1415.373901	7145.135254	2944.523926	26.687849
823.508545	1474.537476	9388.798828	3506.577637	25.675676
823.813965	1367.588013	10603.926758	3954.855225	28.011826
824.119263	1454.057739	10378.650391	3702.272461	25.191231
824.424622	1488.190552	9006.511719	3422.383301	25.726391
824.729858	1383.516602	7552.453613	3058.300049	27.148655
825.035095	1344.832764	6589.908203	2771.584229	27.201735
825.340149	1374.414551	5939.109375	2603.195801	26.919243
825.645264	1369.863525	5311.065430	2414.327637	26.501158
825.950256	1394.894287	4956.084473	2346.062012	26.709265
826.255310	1347.108276	4553.316895	2214.081787	27.040459
826.560242	1347.108276	4321.213867	2141.265137	26.702377
826.865112	1340.281738	4091.386475	2000.182739	23.986765
827.169922	1415.373901	3884.313965	2038.866699	25.253462
827.474670	1374.414551	3841.079102	1970.601074	24.169744
827.779419	1419.924927	4191.509277	2125.336426	25.451561
828.084045	1358.485962	4776.318359	2245.938965	25.965374
828.388672	1406.271851	5267.830566	2341.510986	24.219213
828.693176	1447.231201	5438.494629	2427.980713	24.572407
828.997681	1360.761475	5129.023926	2355.164063	26.388889
829.302124	1319.802124	4573.796875	2170.846924	26.153849
829.606567	1403.996338	4111.866211	2102.581299	25.798321
829.910828	1401.720825	3706.823486	1920.539551	22.507402
830.215149	1369.863525	3513.404053	1927.366089	26.008492
830.519348	1385.792114	3260.821289	1872.753662	25.970879
830.823547	1353.934937	3099.259277	1763.528564	23.468052
831.127686	1372.139038	2926.319824	1763.528564	25.183012
831.431763	1394.894287	2885.360352	1743.048950	23.358778
831.735779	1365.312500	2726.073975	1656.579102	21.404676
832.039734	1358.485962	2641.879639	1620.170776	20.390066
832.343628	1378.965576	2525.828125	1699.814087	27.976196
832.647461	1278.842651	2562.236328	1638.375000	28.014191
832.951233	1374.414551	2507.624023	1574.660400	17.670683
833.255127	1383.516602	2484.868652	1592.864502	19.008263
833.558777	1415.373901	2482.593262	1674.783325	24.307039
833.862366	1406.271851	2516.726074	1652.028076	22.131144
834.165955	1342.557251	2732.900391	1788.559326	32.078560
834.469482	1365.312500	3160.698486	1827.243164	25.728765
834.773010	1369.863525	3417.832275	1950.121338	28.333334
835.076416	1403.996338	3768.262451	2111.683350	29.932629
835.379822	1399.445313	3879.762939	1988.805176	23.761467
835.683105	1376.690063	3804.670898	2066.172852	28.397371
835.986389	1388.067749	3442.863037	1902.335449	25.027683
836.289612	1374.414551	3192.555664	1770.355225	21.777225
836.592773	1394.894287	3005.962891	1736.222412	21.186443
836.895874	1363.036987	2908.115479	1747.599976	24.889544
837.198914	1390.343262	2853.503174	1706.640625	21.617416
837.501892	1338.006226	2703.318604	1672.507813	24.500004
837.804871	1442.680176	2562.236328	1595.140137	13.617893
838.107666	1353.934937	2528.103516	1633.823975	23.837212
838.410583	1363.036987	2468.940186	1615.619751	22.839500
838.713379	1347.108276	2382.470215	1579.211426	22.417585
839.016052	1397.169800	2259.592041	1556.456177	18.469650
839.318787	1378.965576	2234.561523	1547.354126	19.680849
839.621338	1381.241089	2230.010498	1510.945801	15.281502
839.923889	1419.924927	2316.480225	1563.282837	15.989857
840.226440	1385.792114	2191.326416	1547.354126	20.056503
840.528931	1369.863525	2245.938965	1558.731689	21.558435
840.831299	1356.210449	2352.888428	1522.323364	16.666658
841.133606	1369.863525	2336.959961	1647.477051	28.705877
841.435913	1413.098389	2407.500977	1672.507813	26.086962
841.738220	1376.690063	2409.776611	1574.660400	19.162996
842.040405	1333.455200	2323.306641	1576.935913	24.597702
842.342529	1422.200562	2255.041016	1499.568237	9.289616
842.644592	1369.863525	2284.622803	1526.874512	17.164186
842.946594	1397.169800	2209.530762	1570.109375	21.288513
843.248596	1406.271851	2084.376953	1490.466064	12.416101
843.550598	1374.414551	2118.509766	1551.905151	23.853210
843.852478	1392.618774	2020.662476	1506.394775	18.115936
844.154236	1408.547363	2057.070801	1520.047852	17.192978
844.455994	1324.353149	2027.489014	1479.088501	22.006466
844.757690	1378.965576	1959.223389	1476.812988	16.862747
845.059326	1383.516602	2045.693237	1490.466064	16.151199
845.360962	1356.210449	1952.396851	1490.466064	22.519068
845.662476	1367.588013	1881.855713	1356.210449	-2.212382
845.963989	1465.435425	1950.121338	1435.853638	-6.103290
846.265381	1365.312500	1904.610962	1508.670288	26.582273
846.566772	1397.169800	2032.040039	1374.414551	-3.584236
846.868042	1369.863525	1909.161987	1419.924927	9.282689
847.169373	1385.792114	1991.080688	1390.343262	0.751897
847.470581	1369.863525	1918.264038	1438.129150	12.448133
847.771729	1413.098389	1881.855713	1426.751587	2.912637
848.072815	1388.067749	1827.243164	1367.588013	-4.663225
848.373901	1353.934937	1863.651489	1401.720825	9.374992
848.674866	1374.414551	1811.314575	1417.649414	9.895825
848.975891	1367.588013	1972.876587	1442.680176	12.406011
849.276794	1483.639526	1897.784302	1442.680176	-9.890104
849.577637	1376.690063	1906.886475	1456.333252	15.021450
849.878357	1367.588013	1870.478149	1410.822876	8.597278
850.179077	1351.659302	1802.212524	1349.383789	-0.505049
850.479736	1381.241089	1884.131226	1454.057739	14.479634
850.780396	1397.169800	1820.416626	1369.863525	-6.451620
851.080994	1369.863525	1897.784302	1415.373901	8.620683
851.381470	1390.343262	1856.824951	1413.098389	4.878032
851.681946	1356.210449	1886.406738	1415.373901	11.158783
851.982361	1312.975464	1802.212524	1406.271851	19.069771
852.282715	1394.894287	1824.967651	1426.751587	7.407411
852.583008	1381.241089	1845.447388	1415.373901	7.352941
852.883240	1374.414551	1872.753662	1465.435425	18.264847
853.183411	1390.343262	1758.977539	1454.057739	17.283926
853.483521	1335.730713	1797.661377	1417.649414	17.733982
853.783630	1351.659302	1847.722900	1372.139038	4.128450
854.083679	1383.516602	1738.497925	1328.904175	-15.384591
854.383667	1401.720825	1811.314575	1451.782227	12.222208
854.683533	1442.680176	1843.171875	1467.710938	6.250008
854.983337	1422.200562	1793.110352	1456.333252	9.202424
855.283203	1367.588013	1795.385864	1367.588013	0.000000
855.582886	1347.108276	1781.732788	1435.853638	20.418858
855.882629	1360.761475	1738.497925	1460.884399	26.506027
856.182312	1344.832764	1834.069824	1449.506714	21.395344
856.481873	1324.353149	1774.906250	1483.639526	35.353519
856.781372	1324.353149	1863.651489	1363.036987	7.172994
857.080872	1376.690063	1824.967651	1394.894287	4.060926
857.380310	1328.904175	1811.314575	1378.965576	10.377347
857.679688	1397.169800	1824.967651	1408.547363	2.659565
857.979004	1349.383789	1729.395752	1417.649414	17.964073
858.278259	1397.169800	1743.048950	1408.547363	3.289462
858.577454	1426.751587	1749.875488	1476.812988	15.492943
858.876648	1385.792114	1777.181763	1394.894287	2.325604
859.175720	1403.996338	1779.457275	1424.476074	5.454558
859.474792	1426.751587	1809.039063	1433.578125	1.785708
859.773743	1413.098389	1849.998413	1410.822876	-0.520831
860.072693	1363.036987	1774.906250	1469.986450	25.966846
860.371521	1413.098389	1733.946899	1447.231201	10.638295
860.670349	1378.965576	1777.181763	1365.312500	-3.428559
860.969116	1429.027100	1768.079712	1456.333252	8.053662
861.267883	1413.098389	1752.151001	1438.129150	7.382560
861.566589	1403.996338	1875.029175	1442.680176	8.212557
861.865112	1390.343262	1761.253052	1403.996338	3.680969
862.163635	1363.036987	1781.732788	1417.649414	13.043462
862.462158	1363.036987	1815.865601	1408.547363	10.050243
862.760620	1367.588013	1815.865601	1406.271851	8.629438
863.059021	1415.373901	1758.977539	1408.547363	-1.986748
863.357361	1401.720825	1743.048950	1438.129150	10.666664
863.655640	1356.210449	1797.661377	1406.271851	11.340197
863.953857	1399.445313	1695.262939	1356.210449	-14.615377
864.251953	1390.343262	1763.528564	1424.476074	9.146344
864.550110	1372.139038	1718.018188	1385.792114	3.947355
864.848206	1408.547363	1752.151001	1458.608887	14.569555
865.146179	1410.822876	1743.048950	1460.884399	15.068511
865.444092	1338.006226	1820.416626	1363.036987	5.188686
865.741943	1408.547363	1799.937012	1419.924927	2.906966
866.039795	1342.557251	1754.426514	1463.159912	29.281782
866.337646	1374.414551	1758.977539	1417.649414	11.242596
866.635376	1308.424438	1790.834839	1406.271851	20.283024
866.933044	1385.792114	1804.488037	1433.578125	11.413058
867.230652	1328.904175	1809.039063	1367.588013	8.056869
867.528198	1392.618774	1793.110352	1483.639526	22.727257
867.825745	1310.699951	1713.467163	1429.027100	29.378546
868.123230	1390.343262	1843.171875	1303.873413	-19.095491
868.420593	1449.506714	1799.937012	1378.965576	-20.129862
868.717896	1399.445313	1768.079712	1324.353149	-20.370363
869.015198	1381.241089	1724.844727	1383.516602	0.662249
869.312439	1469.986450	1765.804199	1435.853638	-11.538460
869.609619	1392.618774	1729.395752	1410.822876	5.405388
869.906738	1408.547363	1790.834839	1415.373901	1.785708
870.203796	1367.588013	1754.426514	1406.271851	9.999997
870.500854	1403.996338	1815.865601	1390.343262	-3.314905
870.797791	1356.210449	1699.814087	1401.720825	13.245022
871.094666	1385.792114	1695.262939	1469.986450	27.205904
871.391602	1431.302612	1797.661377	1419.924927	-3.105613
871.688293	1435.853638	1642.926025	1431.302612	-2.197794
871.985107	1340.281738	1784.008301	1472.261963	29.743593
872.281738	1287.944824	1765.804199	1394.894287	22.380949
872.578369	1381.241089	1772.630737	1378.965576	-0.581393
872.874939	1392.618774	1790.834839	1454.057739	15.428550
873.171509	1374.414551	1820.416626	1406.271851	7.142859
873.467957	1367.588013	1699.814087	1465.435425	29.452057
873.764343	1349.383789	1761.253052	1378.965576	7.182324
874.060669	1447.231201	1763.528564	1397.169800	-15.827322
874.356995	1438.129150	1768.079712	1347.108276	-27.586216
874.653198	1413.098389	1831.794189	1381.241089	-7.608698
874.949463	1363.036987	1818.141113	1426.751587	14.000005
875.245544	1385.792114	1754.426514	1381.241089	-1.234563
875.541626	1388.067749	1736.222412	1399.445313	3.267962
875.837646	1331.179688	1799.937012	1385.792114	11.650469
876.133606	1401.720825	1774.906250	1381.241089	-5.487818
876.429565	1399.445313	1731.671387	1394.894287	-1.369858
876.725403	1328.904175	1772.630737	1388.067749	13.333341
877.021179	1363.036987	1790.834839	1388.067749	5.851072
877.316956	1338.006226	1708.916138	1481.364014	38.650299
877.612610	1424.476074	1679.334351	1458.608887	13.392860
877.908203	1415.373901	1670.232300	1363.036987	-20.535683
878.203857	1358.485962	1702.089600	1467.710938	31.788073
878.499390	1356.210449	1813.590088	1392.618774	7.960198
878.794800	1419.924927	1786.283813	1344.832764	-20.496885
879.090271	1340.281738	1799.937012	1465.435425	27.227728
879.385559	1365.312500	1824.967651	1465.435425	21.782183
879.680847	1422.200562	1795.385864	1417.649414	-1.219541
879.976196	1319.802124	1852.273926	1403.996338	15.811957
880.271301	1403.996338	1890.957764	1410.822876	1.401864
880.566467	1363.036987	1961.498901	1419.924927	9.505691
880.861572	1451.782227	1981.978638	1483.639526	6.008584
881.156555	1324.353149	2066.172852	1522.323364	26.687107
881.451477	1408.547363	2264.143311	1631.548462	26.063833
881.746460	1438.129150	2528.103516	1583.762451	13.361168
882.041321	1444.955688	3135.667725	1770.355225	19.246302
882.336121	1358.485962	4016.294189	1966.049927	22.859587
882.630798	1449.506714	4728.532227	2061.621826	18.667593
882.925537	1403.996338	5001.594727	2268.694336	24.035423
883.220215	1426.751587	4869.614746	2173.122314	21.678780
883.514771	1308.424438	4548.766113	2070.723877	23.525278
883.809326	1401.720825	4211.988770	2043.417725	22.834011
884.103760	1351.659302	3920.722412	1988.805176	24.800711
884.398132	1403.996338	3688.619141	1936.468262	23.306776
884.692505	1378.965576	3547.536865	1904.610962	24.239248
884.986816	1333.455200	3335.913574	1852.273926	25.909090
885.281067	1363.036987	3076.504150	1747.599976	22.443558
885.575256	1374.414551	2978.656738	1722.569214	21.702126
885.869385	1406.271851	2742.002686	1681.609863	20.613285
886.163452	1488.190552	2662.359375	1570.109375	6.976750
886.457458	1415.373901	2459.837891	1588.313477	16.557735
886.751465	1410.822876	2343.786377	1545.078613	14.390245
887.045410	1360.761475	2243.663574	1558.731689	22.422668
887.339233	1358.485962	2116.234375	1572.384888	28.228226
887.632996	1390.343262	2070.723877	1481.364014	13.377916
887.926758	1367.588013	1966.049927	1492.741699	20.912556
888.220398	1397.169800	1922.815063	1508.670288	21.212116
888.514099	1390.343262	1931.917114	1410.822876	3.781500
888.807678	1328.904175	1811.314575	1415.373901	17.924515
889.101196	1385.792114	1929.641602	1458.608887	13.389140
889.394653	1374.414551	1859.100464	1406.271851	6.572772
889.688049	1435.853638	1893.233276	1481.364014	9.950241
889.981384	1338.006226	1822.692139	1410.822876	15.023472
890.274719	1385.792114	1733.946899	1417.649414	9.150327
890.567932	1378.965576	1843.171875	1399.445313	4.411775
>>>>>End Processed Spectral Data<<<<<
