Jaz Data File
++++++++++++++++++++++++++++++++++++
Date: Wed Feb 07 06:38:13 2024
User: jaz
Dark Spectrum Present: Yes
Reference Spectrum Present: Yes
Processed Spectrum Present: Yes
Spectrometers: JAZA3692
Integration Time (usec): 40000 (JAZA3692)
Spectra Averaged: 1 (JAZA3692)
Boxcar Smoothing: 0 (JAZA3692)
Correct for Electrical Dark: No (JAZA3692)
Strobe/Lamp Enabled: Yes (JAZA3692)
Correct for Detector Non-linearity: No (JAZA3692)
Correct for Stray Light: No (JAZA3692)
Number of Pixels in Processed Spectrum: 2048
>>>>>Begin Processed Spectral Data<<<<<
W	D	R	S	P
190.244385	0.000000	0.000000	0.000000	0.000000
190.627136	0.000000	0.000000	0.000000	0.000000
191.009842	1221.954712	1244.709839	1124.107300	-430.001617
191.392532	1335.730713	1244.709839	1233.332275	112.499947
191.775177	1317.526489	1301.597900	1306.148926	71.428574
192.157791	1219.679199	1292.495850	1267.465088	65.624947
192.540390	1322.077637	1281.118164	1167.342163	377.777008
192.922943	1274.291626	1312.975464	1251.536499	-58.823345
193.305481	1333.455200	1312.975464	1208.301514	611.109863
193.687958	1281.118164	1272.016113	1303.873413	-250.001343
194.070419	1290.220337	1285.669312	1267.465088	500.002686
194.452866	1244.709839	1265.189575	1217.403687	-133.332535
194.835251	1290.220337	1306.148926	1233.332275	-357.144379
195.217621	1299.322388	1349.383789	1285.669312	-27.272661
195.599960	1312.975464	1301.597900	1287.944824	220.000000
195.982254	1297.046875	1297.046875	1281.118164	0.000000
196.364517	1297.046875	1310.699951	1212.852539	-616.669373
196.746750	1326.628662	1365.312500	1256.087524	-182.352997
197.128952	1290.220337	1353.934937	1326.628662	57.142830
197.511139	1328.904175	1326.628662	1267.465088	2700.010742
197.893280	1331.179688	1335.730713	1292.495850	-850.002686
198.275391	1310.699951	1312.975464	1285.669312	-1100.000000
198.657471	1276.567139	1297.046875	1265.189575	-55.555225
199.039520	1244.709839	1349.383789	1208.301514	-34.782604
199.421539	1347.108276	1331.179688	1278.842651	428.572968
199.803513	1256.087524	1285.669312	1244.709839	-38.461792
200.185471	1253.812012	1358.485962	1312.975464	56.521660
200.567383	1335.730713	1272.016113	1349.383789	-21.428490
200.949265	1283.393677	1287.944824	1258.363037	-549.985229
201.331131	1326.628662	1335.730713	1235.607788	-1000.004028
201.712967	1299.322388	1315.250977	1340.281738	257.143616
202.094742	1235.607788	1308.424438	1203.750488	-43.750019
202.476517	1233.332275	1278.842651	1228.781250	-9.999973
202.858231	1258.363037	1281.118164	1244.709839	-60.000538
203.239944	1301.597900	1292.495850	1196.923950	1150.004028
203.621582	1256.087524	1328.904175	1260.638550	6.249979
204.003235	1363.036987	1285.669312	1251.536499	144.117661
204.384827	1276.567139	1292.495850	1244.709839	-199.999237
204.766388	1281.118164	1274.291626	1267.465088	200.000000
205.147934	1301.597900	1292.495850	1258.363037	475.001343
205.529449	1403.996338	1312.975464	1210.577026	212.499954
205.910904	1283.393677	1258.363037	1244.709839	154.545944
206.292343	1210.577026	1322.077637	1246.985352	32.653027
206.673767	1308.424438	1281.118164	1319.802124	-41.666927
207.055115	1242.434326	1372.139038	1244.709839	1.754379
207.436462	1328.904175	1326.628662	1310.699951	800.005371
207.817780	1303.873413	1399.445313	1203.750488	-104.761887
208.199051	1251.536499	1328.904175	1292.495850	52.941166
208.580307	1242.434326	1390.343262	1285.669312	29.230814
208.961517	1267.465088	1306.148926	1203.750488	-164.705994
209.342712	1292.495850	1312.975464	1187.821899	-511.112885
209.723846	1242.434326	1221.954712	1199.199463	211.111710
210.104965	1322.077637	1285.669312	1203.750488	325.000244
210.486069	1267.465088	1306.148926	1219.679199	-123.529335
210.867111	1281.118164	1226.505737	1276.567139	8.333315
211.248123	1301.597900	1299.322388	1217.403687	3700.010742
211.629120	1322.077637	1319.802124	1203.750488	5200.021484
212.010071	1274.291626	1338.006226	1274.291626	0.000000
212.390991	1262.914063	1283.393677	1190.097412	-355.556763
212.771881	1294.771362	1351.659302	1297.046875	3.999991
213.152756	1319.802124	1374.414551	1294.771362	-45.833454
213.533569	1306.148926	1333.455200	1303.873413	-8.333296
213.914368	1226.505737	1369.863525	1203.750488	-15.873047
214.295135	1267.465088	1317.526489	1283.393677	31.818104
214.675858	1249.260864	1365.312500	1233.332275	-13.725432
215.056549	1322.077637	1328.904175	1283.393677	-566.670227
215.437225	1285.669312	1299.322388	1219.679199	-483.335114
215.817841	1276.567139	1360.761475	1210.577026	-78.378326
216.198441	1358.485962	1340.281738	1231.056763	699.997986
216.579025	1353.934937	1385.792114	1285.669312	-214.286484
216.959549	1299.322388	1292.495850	1135.484863	2400.009033
217.340057	1278.842651	1344.832764	1251.536499	-41.379158
217.720535	1301.597900	1347.108276	1281.118164	-45.000149
218.100967	1294.771362	1301.597900	1221.954712	-1066.670288
218.481369	1317.526489	1335.730713	1226.505737	-499.997986
218.861740	1344.832764	1292.495850	1240.158813	200.000229
219.242065	1256.087524	1228.781250	1242.434326	50.000225
219.622391	1256.087524	1303.873413	1235.607788	-42.857288
220.002670	1274.291626	1317.526489	1226.505737	-110.526283
220.382919	1344.832764	1228.781250	1208.301514	117.647110
220.763123	1308.424438	1322.077637	1231.056763	-566.663391
221.143295	1356.210449	1322.077637	1256.087524	293.333344
221.523453	1269.740601	1340.281738	1338.006226	96.774208
221.903549	1251.536499	1356.210449	1306.148926	52.173847
222.283630	1297.046875	1333.455200	1253.812012	-118.749939
222.663696	1317.526489	1319.802124	1203.750488	-4999.748047
223.043701	1206.026001	1333.455200	1253.812012	37.500050
223.423676	1224.230225	1378.965576	1228.781250	2.941167
223.803635	1244.709839	1347.108276	1208.301514	-35.555546
224.183548	1260.638550	1285.669312	1278.842651	72.726921
224.563431	1260.638550	1283.393677	1203.750488	-250.001068
224.943283	1322.077637	1335.730713	1194.648438	-933.336914
225.323105	1246.985352	1353.934937	1310.699951	59.574425
225.702881	1260.638550	1308.424438	1272.016113	23.809464
226.082642	1242.434326	1265.189575	1221.954712	-89.999519
226.462357	1365.312500	1383.516602	1249.260864	-637.502686
226.842041	1219.679199	1369.863525	1221.954712	1.515147
227.221695	1319.802124	1315.250977	1221.954712	2149.950439
227.601318	1306.148926	1406.271851	1267.465088	-38.636345
227.980911	1276.567139	1463.159912	1269.740601	-3.658522
228.360474	1287.944824	1383.516602	1226.505737	-64.285805
228.739990	1283.393677	1440.404663	1274.291626	-5.797079
229.119476	1285.669312	1408.547363	1199.199463	-70.370461
229.498932	1283.393677	1424.476074	1219.679199	-45.161182
229.878372	1299.322388	1504.119263	1210.577026	-43.333359
230.257736	1262.914063	1515.496826	1294.771362	12.612618
230.637115	1174.168701	1572.384888	1196.923950	5.714295
231.016449	1242.434326	1454.057739	1244.709839	1.075265
231.395737	1267.465088	1542.803101	1226.505737	-14.876024
231.774994	1269.740601	1442.680176	1169.617676	-57.894745
232.154221	1276.567139	1476.812988	1176.444214	-50.000000
232.533417	1231.056763	1451.782227	1226.505737	-2.061849
232.912582	1265.189575	1419.924927	1260.638550	-2.941167
233.291702	1299.322388	1392.618774	1226.505737	-78.048737
233.670792	1276.567139	1447.231201	1267.465088	-5.333314
234.049866	1251.536499	1444.955688	1183.270874	-35.294132
234.428894	1349.383789	1417.649414	1292.495850	-83.333214
234.807892	1292.495850	1410.822876	1283.393677	-7.692387
235.186874	1308.424438	1444.955688	1249.260864	-43.333359
235.565781	1203.750488	1504.119263	1283.393677	26.515137
235.944687	1274.291626	1490.466064	1287.944824	6.315825
236.323547	1333.455200	1501.843750	1299.322388	-20.270269
236.702377	1287.944824	1481.364014	1244.709839	-22.352997
237.081177	1283.393677	1501.843750	1251.536499	-14.583277
237.459946	1269.740601	1515.496826	1240.158813	-12.037045
237.838669	1265.189575	1535.976563	1219.679199	-16.806707
238.217361	1206.026001	1565.558350	1228.781250	6.329124
238.596039	1244.709839	1515.496826	1308.424438	23.529417
238.974670	1299.322388	1561.007324	1176.444214	-46.956532
239.353271	1297.046875	1488.190552	1203.750488	-48.809559
239.731842	1244.709839	1533.701050	1242.434326	-0.787399
240.110367	1308.424438	1488.190552	1276.567139	-17.721527
240.488876	1301.597900	1608.793213	1265.189575	-11.851850
240.867340	1356.210449	1590.588989	1269.740601	-36.893246
241.245789	1306.148926	1545.078613	1235.607788	-29.523806
241.624176	1303.873413	1508.670288	1276.567139	-13.333345
242.002548	1297.046875	1706.640625	1219.679199	-18.888882
242.380890	1351.659302	1758.977539	1224.230225	-31.284893
242.759186	1272.016113	1736.222412	1240.158813	-6.862746
243.137451	1303.873413	1904.610962	1242.434326	-10.227276
243.515686	1274.291626	1966.049927	1203.750488	-10.197368
243.893890	1274.291626	2011.560425	1272.016113	-0.308641
244.272049	1210.577026	1981.978638	1196.923950	-1.769905
244.650192	1331.179688	1843.171875	1303.873413	-5.333338
245.028290	1308.424438	1827.243164	1253.812012	-10.526302
245.406357	1190.097412	1699.814087	1262.914063	14.285711
245.784393	1272.016113	1692.987427	1265.189575	-1.621616
246.162384	1308.424438	1756.702026	1253.812012	-12.182725
246.540359	1278.842651	1793.110352	1219.679199	-11.504408
246.918289	1208.301514	1822.692139	1192.372925	-2.592583
247.296204	1338.006226	2052.519775	1310.699951	-3.821659
247.674057	1294.771362	2245.938965	1287.944824	-0.717701
248.051895	1338.006226	2393.847900	1206.026001	-12.500002
248.429703	1347.108276	2443.909424	1281.118164	-6.016598
248.807465	1278.842651	2473.491211	1274.291626	-0.380951
249.185196	1281.118164	2316.480225	1292.495850	1.098909
249.562897	1317.526489	2125.336426	1281.118164	-4.507041
249.940567	1358.485962	2098.030273	1246.985352	-15.076935
250.318192	1312.975464	1972.876587	1246.985352	-10.000000
250.695801	1317.526489	1986.529663	1272.016113	-6.802714
251.073349	1324.353149	1859.100464	1249.260864	-14.042574
251.450882	1303.873413	1827.243164	1219.679199	-16.086946
251.828400	1276.567139	1879.580200	1256.087524	-3.396214
252.205872	1221.954712	1790.834839	1149.138062	-12.799999
252.583313	1269.740601	1900.059814	1203.750488	-10.469316
252.960693	1226.505737	1938.743774	1290.220337	8.945689
253.338074	1303.873413	2045.693237	1237.883301	-8.895706
253.715408	1287.944824	2077.550537	1272.016113	-2.017299
254.092682	1319.802124	1945.570313	1215.128052	-16.727291
254.469955	1258.363037	1806.763550	1237.883301	-3.734449
254.847198	1231.056763	1779.457275	1294.771362	11.618260
255.224365	1283.393677	1854.549438	1297.046875	2.390451
255.601563	1215.128052	1768.079712	1267.465088	9.465029
255.978683	1338.006226	1834.069824	1292.495850	-9.174303
256.355743	1260.638550	1818.141113	1262.914063	0.408162
256.732819	1240.158813	1906.886475	1287.944824	7.167246
257.109894	1301.597900	1829.518677	1233.332275	-12.931036
257.486877	1267.465088	1920.539551	1249.260864	-2.787465
257.863831	1276.567139	1934.192627	1265.189575	-1.730098
258.240753	1326.628662	1943.294800	1224.230225	-16.605165
258.617645	1303.873413	2029.764526	1297.046875	-0.940436
258.994507	1251.536499	2118.509766	1253.812012	0.262466
259.371307	1274.291626	2184.500000	1206.026001	-7.500000
259.748108	1292.495850	2286.898438	1203.750488	-8.924490
260.124878	1212.852539	2493.970703	1297.046875	6.571941
260.501617	1315.250977	2760.206787	1308.424438	-0.472439
260.878296	1294.771362	2919.493164	1312.975464	1.120444
261.254944	1301.597900	3056.024414	1246.985352	-3.112843
261.631561	1262.914063	2933.146240	1301.597900	2.316076
262.008179	1347.108276	2657.808350	1256.087524	-6.944438
262.384735	1290.220337	2484.868652	1258.363037	-2.666668
262.761261	1278.842651	2275.520752	1235.607788	-4.337896
263.137695	1281.118164	2311.929199	1265.189575	-1.545248
263.514191	1206.026001	2141.265137	1199.199463	-0.729924
263.890594	1219.679199	2107.132324	1265.189575	5.128201
264.267029	1265.189575	2141.265137	1306.148926	4.675322
264.643341	1251.536499	2145.816162	1190.097412	-6.870232
265.019653	1333.455200	2111.683350	1256.087524	-9.941516
265.395935	1312.975464	2152.642578	1269.740601	-5.149048
265.772217	1256.087524	2045.693237	1335.730713	10.086451
266.148407	1281.118164	2045.693237	1276.567139	-0.595236
266.524597	1281.118164	2079.825928	1290.220337	1.139612
266.900726	1237.883301	2286.898438	1299.322388	5.856835
267.276855	1322.077637	2352.888428	1276.567139	-4.415020
267.652924	1272.016113	2407.500977	1274.291626	0.200400
268.028992	1351.659302	2346.062012	1283.393677	-6.864988
268.404999	1303.873413	2430.256104	1242.434326	-5.454548
268.781006	1335.730713	2416.603027	1192.372925	-13.263157
269.156921	1290.220337	2334.684326	1260.638550	-2.832246
269.532837	1322.077637	2325.582275	1278.842651	-4.308399
269.908661	1233.332275	2409.776611	1358.485962	10.638301
270.284546	1301.597900	2277.796387	1192.372925	-11.188808
270.660339	1365.312500	2409.776611	1283.393677	-7.843144
271.036133	1260.638550	2450.735840	1219.679199	-3.441681
271.411835	1285.669312	2318.755615	1283.393677	-0.220275
271.787537	1256.087524	2594.093750	1328.904175	5.442176
272.163239	1215.128052	2814.819336	1335.730713	7.539121
272.538849	1315.250977	2987.758789	1260.638550	-3.265302
272.914459	1299.322388	2912.666504	1203.750488	-5.923839
273.290070	1272.016113	2846.676514	1262.914063	-0.578033
273.665588	1281.118164	2673.737061	1294.771362	0.980397
274.041046	1285.669312	2714.696289	1360.761475	5.254776
274.416565	1246.985352	2550.858887	1342.557251	7.329844
274.791962	1206.026001	2621.399902	1312.975464	7.556269
275.167389	1319.802124	2544.032227	1378.965576	4.832707
275.542755	1283.393677	2498.521729	1315.250977	2.621724
275.918060	1244.709839	2523.552490	1162.791138	-6.405690
276.293365	1281.118164	2459.837891	1269.740601	-0.965248
276.668640	1317.526489	2584.991699	1278.842651	-3.052063
277.043854	1272.016113	2546.307861	1324.353149	4.107147
277.419037	1260.638550	2687.390137	1269.740601	0.637956
277.794189	1287.944824	2716.971924	1242.434326	-3.184719
278.169312	1217.403687	2714.696289	1217.403687	0.000000
278.544373	1294.771362	2682.839111	1317.526489	1.639338
278.919464	1322.077637	2537.205811	1272.016113	-4.119855
279.294464	1287.944824	2569.062988	1246.985352	-3.197166
279.669464	1237.883301	2619.124512	1231.056763	-0.494232
280.044403	1256.087524	2669.185791	1283.393677	1.932361
280.419312	1262.914063	2689.665527	1319.802124	3.987244
280.794189	1276.567139	2710.145264	1287.944824	0.793656
281.169037	1331.179688	2680.563477	1272.016113	-4.384488
281.543854	1353.934937	2810.268311	1285.669312	-4.687500
281.918671	1228.781250	2851.227539	1283.393677	3.366055
282.293365	1312.975464	2924.044189	1231.056763	-5.084743
282.668091	1358.485962	3056.024414	1265.189575	-5.495981
283.042786	1353.934937	3147.045166	1306.148926	-2.664979
283.417419	1299.322388	3030.993652	1215.128052	-4.862028
283.792053	1237.883301	3046.922363	1251.536499	0.754721
284.166595	1283.393677	2905.840088	1274.291626	-0.561008
284.541138	1199.199463	2873.982666	1319.802124	7.201091
284.915619	1237.883301	2951.350586	1317.526489	4.648072
285.290100	1308.424438	3012.789551	1231.056763	-4.539384
285.664520	1297.046875	3067.402100	1299.322388	0.128534
286.038940	1326.628662	3117.463379	1292.495850	-1.905972
286.413300	1269.740601	3112.912354	1378.965576	5.925925
286.787628	1310.699951	3244.892578	1276.567139	-1.764706
287.161896	1285.669312	3470.169189	1335.730713	2.291664
287.536194	1240.158813	3360.944336	1265.189575	1.180259
287.910400	1290.220337	3281.301025	1331.179688	2.057142
288.284607	1331.179688	3219.861816	1351.659302	1.084334
288.658752	1303.873413	3096.983887	1281.118164	-1.269038
289.032867	1303.873413	2974.105713	1278.842651	-1.498640
289.406921	1278.842651	2924.044189	1206.026001	-4.426002
289.781006	1269.740601	3046.922363	1272.016113	0.128041
290.154999	1294.771362	3128.841064	1237.883301	-3.101739
290.529022	1258.363037	3213.035400	1208.301514	-2.561121
290.902954	1308.424438	3272.198975	1344.832764	1.853997
291.276825	1292.495850	3429.209961	1299.322388	0.319488
291.650757	1324.353149	3374.597412	1356.210449	1.553830
292.024597	1369.863525	3447.414063	1290.220337	-3.833514
292.398407	1281.118164	3356.393066	1358.485962	3.728075
292.772156	1290.220337	3310.882813	1299.322388	0.450449
293.145905	1240.158813	3206.208740	1246.985352	0.347221
293.519592	1283.393677	3192.555664	1340.281738	2.979740
293.893280	1306.148926	3156.147461	1297.046875	-0.492003
294.266907	1310.699951	3297.229736	1338.006226	1.374572
294.640533	1278.842651	3360.944336	1251.536499	-1.311471
295.014069	1272.016113	3481.546875	1290.220337	0.823895
295.387604	1317.526489	3615.802490	1272.016113	-1.980196
295.761078	1267.465088	3572.567627	1283.393677	0.691014
296.134552	1235.607788	3590.771729	1235.607788	0.000000
296.507996	1251.536499	3593.047363	1290.220337	1.652089
296.881378	1178.719727	3572.567627	1269.740601	3.802283
297.254730	1285.669312	3875.211914	1244.709839	-1.581726
297.628021	1262.914063	4068.631104	1256.087524	-0.243308
298.001282	1274.291626	4027.671875	1221.954712	-1.900824
298.374573	1310.699951	4068.631104	1376.690063	2.392740
298.747803	1253.812012	3993.539063	1294.771362	1.495016
299.121002	1269.740601	3795.568604	1283.393677	0.540539
299.494141	1228.781250	3702.272461	1319.802124	3.679854
299.867188	1221.954712	3645.384277	1308.424438	3.568072
300.240265	1253.812012	3538.434814	1308.424438	2.390435
300.613312	1278.842651	3424.658691	1249.260864	-1.378580
300.986328	1283.393677	3401.903564	1256.087524	-1.288932
301.359314	1251.536499	3310.882813	1301.597900	2.430937
301.732239	1256.087524	3333.637939	1276.567139	0.985758
302.105103	1253.812012	3413.281250	1292.495850	1.791359
302.477997	1258.363037	3401.903564	1347.108276	4.140124
302.850830	1285.669312	3408.730225	1328.904175	2.036440
303.223602	1285.669312	3272.198975	1306.148926	1.030924
303.596375	1256.087524	3315.433838	1319.802124	3.093924
303.969116	1287.944824	3224.413086	1299.322388	0.587542
304.341766	1294.771362	3283.576416	1306.148926	0.572080
304.714478	1349.383789	3294.954102	1324.353149	-1.286545
305.087067	1347.108276	3035.544678	1324.353149	-1.347704
305.459656	1246.985352	3192.555664	1426.751587	9.239771
305.832214	1294.771362	3224.413086	1374.414551	4.127356
306.204681	1340.281738	3235.790527	1331.179688	-0.480190
306.577148	1303.873413	3233.515137	1372.139038	3.537736
306.949646	1347.108276	3326.811523	1469.986450	6.206899
307.322021	1281.118164	3231.239502	1353.934937	3.733961
307.694397	1287.944824	3162.973877	1406.271851	6.310677
308.066742	1262.914063	3251.719238	1460.884399	9.954235
308.439026	1351.659302	3285.852051	1435.853638	4.352944
308.811279	1310.699951	3404.179199	1576.935913	12.717392
309.183502	1253.812012	3606.700439	1545.078613	12.379108
309.555695	1235.607788	3622.629150	1645.201538	17.159199
309.927887	1215.128052	3608.976074	1626.997314	17.205320
310.299988	1237.883301	3547.536865	1617.895264	16.453201
310.672058	1333.455200	3574.843262	1597.415649	11.776650
311.044128	1219.679199	3684.068115	1697.538574	19.390583
311.416168	1272.016113	3693.170166	1731.671387	18.984966
311.788147	1253.812012	3618.078125	1654.303589	16.939362
312.160065	1187.821899	3715.925537	1626.997314	17.371735
312.531982	1328.904175	3595.322754	1620.170776	12.851404
312.903870	1315.250977	3613.527100	1711.191650	17.227724
313.275696	1301.597900	3449.689453	1652.028076	16.313559
313.647491	1276.567139	3413.281250	1599.691162	15.122474
314.019318	1342.557251	3360.944336	1656.579102	15.558059
314.391022	1328.904175	3397.352539	1599.691162	13.091311
314.762726	1328.904175	3574.843262	1695.262939	16.312054
315.134369	1260.638550	3502.026611	1633.823975	16.649746
315.505981	1267.465088	3606.700439	1745.324463	20.428017
315.877594	1249.260864	3718.200928	1677.058838	17.327192
316.249146	1315.250977	3611.251465	1642.926025	14.271559
316.620636	1267.465088	3583.945313	1704.365112	18.860512
316.992157	1276.567139	3338.188965	1613.344238	16.335543
317.363586	1240.158813	3388.250488	1638.375000	18.538136
317.735016	1283.393677	3301.780762	1640.650513	17.700115
318.106354	1274.291626	3269.923340	1642.926025	18.472065
318.477722	1258.363037	3306.331787	1615.619751	17.444441
318.849060	1251.536499	3433.760986	1663.405762	18.873825
319.220306	1251.536499	3372.321777	1665.681274	19.527899
319.591522	1276.567139	3456.516113	1515.496826	10.960334
319.962738	1283.393677	3424.658691	1604.242188	14.984063
320.333923	1258.363037	3533.883789	1697.538574	19.300001
320.705017	1274.291626	3413.281250	1702.089600	20.000002
321.076111	1297.046875	3406.454590	1624.721802	15.533978
321.447144	1328.904175	3422.383301	1608.793213	13.369565
321.818176	1219.679199	3299.505127	1629.272949	19.693655
322.189178	1297.046875	3299.505127	1617.895264	16.022726
322.560120	1317.526489	3258.545898	1606.517700	14.888631
322.931030	1262.914063	3363.219727	1590.588989	15.601297
323.301910	1262.914063	3574.843262	1690.711914	18.503935
323.672729	1317.526489	3704.547852	1722.569214	16.968542
324.043549	1317.526489	3772.813477	1665.681274	14.179799
324.414337	1269.740601	4011.743164	1695.262939	15.518671
324.785095	1358.485962	4080.008789	1784.008301	15.635449
325.155792	1287.944824	4116.416992	1688.436401	14.159290
325.526428	1285.669312	4168.753906	1727.120239	15.311758
325.897034	1208.301514	4041.324951	1683.885376	16.787149
326.267670	1262.914063	4018.569824	1747.599976	17.588768
326.638184	1283.393677	3891.140625	1679.334351	15.183247
327.008728	1287.944824	4011.743164	1656.579102	13.533832
327.379211	1299.322388	4027.671875	1749.875488	16.513760
327.749634	1319.802124	3893.416016	1636.099487	12.290009
328.120026	1228.781250	3791.017578	1645.201538	16.252220
328.490417	1219.679199	3806.946289	1633.823975	16.007036
328.860748	1228.781250	3725.027588	1592.864502	14.585229
329.231079	1260.638550	3797.844238	1636.099487	14.798207
329.601318	1274.291626	3649.935303	1586.037964	13.122605
329.971558	1256.087524	3777.364502	1597.415649	13.537908
330.341736	1244.709839	3781.915527	1656.579102	16.233185
330.711914	1303.873413	3841.079102	1633.823975	13.004487
331.082062	1285.669312	3784.191162	1590.588989	12.204002
331.452148	1246.985352	3802.395264	1606.517700	14.069459
331.822174	1285.669312	3747.782715	1692.987427	16.543436
332.192200	1262.914063	3845.630127	1597.415649	12.951543
332.562134	1292.495850	3918.446777	1704.365112	15.684576
332.932129	1237.883301	3993.539063	1626.997314	14.120560
333.302063	1319.802124	4080.008789	1720.293701	14.509479
333.671906	1312.975464	4284.805664	1604.242188	9.800921
334.041718	1194.648438	4214.264648	1649.752563	15.071589
334.411499	1249.260864	4264.326172	1724.844727	15.773583
334.781281	1324.353149	4218.815430	1647.477051	11.163521
335.151001	1274.291626	4293.907715	1681.609863	13.489073
335.520721	1290.220337	4091.386475	1695.262939	14.459785
335.890350	1312.975464	4039.049316	1688.436401	13.772956
336.259979	1233.332275	4018.569824	1672.507813	15.767974
336.629547	1319.802124	4045.875977	1715.742676	14.524205
336.999084	1272.016113	4070.906738	1706.640625	15.528457
337.368622	1340.281738	4098.212891	1633.823975	10.643566
337.738098	1281.118164	4164.203125	1674.783325	13.654304
338.107513	1260.638550	4150.549805	1645.201538	13.307087
338.476898	1260.638550	4248.397461	1672.507813	13.785225
338.846252	1328.904175	4282.530273	1747.599976	14.175654
339.215576	1285.669312	4243.846191	1672.507813	13.076923
339.584869	1269.740601	4230.193359	1667.956787	13.451193
339.954132	1240.158813	4298.458984	1699.814087	15.029762
340.323334	1283.393677	4157.376465	1658.854614	13.064133
340.692505	1287.944824	4098.212891	1656.579102	13.117406
341.061646	1281.118164	3970.783691	1629.272949	12.944166
341.430786	1299.322388	4100.488281	1638.375000	12.103981
341.799896	1310.699951	4221.091309	1672.507813	12.431588
342.168915	1292.495850	4248.397461	1656.579102	12.317164
342.537903	1278.842651	4382.652832	1729.395752	14.516129
342.906830	1272.016113	4243.846191	1638.375000	12.327720
343.275757	1276.567139	4373.550781	1784.008301	16.385014
343.644684	1274.291626	4371.275391	1747.599976	15.282881
344.013550	1333.455200	4487.327148	1756.702026	13.419911
344.382355	1231.056763	4564.694824	1727.120239	14.880544
344.751129	1274.291626	4824.104004	1674.783325	11.282052
345.119873	1333.455200	4976.563965	1777.181763	12.179888
345.488586	1324.353149	5072.135742	1758.977539	11.596841
345.857269	1206.026001	5229.146973	1843.171875	15.837104
346.225891	1237.883301	5342.922852	1863.651489	15.243901
346.594482	1265.189575	5445.321289	1845.447388	13.881328
346.963043	1340.281738	5197.289551	1875.029175	13.864307
347.331543	1228.781250	5001.594727	1786.283813	14.776838
347.700043	1342.557251	4997.043457	1795.385864	12.391033
348.068512	1281.118164	4956.084473	1713.467163	11.764707
348.436951	1283.393677	4621.582520	1765.804199	14.451264
348.805328	1285.669312	4580.623535	1829.518677	16.505522
349.173645	1342.557251	4664.817871	1752.151001	12.328766
349.541931	1308.424438	4623.858398	1731.671387	12.765959
349.910217	1310.699951	4710.328125	1804.488037	14.524768
350.278473	1290.220337	4855.961426	1770.355225	13.465219
350.646667	1353.934937	4819.553223	1813.590088	13.263295
351.014801	1253.812012	4912.849609	1840.896362	16.044775
351.382935	1267.465088	4933.329102	1836.345337	15.518312
351.751007	1306.148926	5006.145996	1831.794189	14.206640
352.119049	1249.260864	5049.380859	1852.273926	15.868263
352.487091	1265.189575	5012.972168	1784.008301	13.843351
352.855072	1328.904175	5247.351074	1836.345337	12.950059
353.222992	1258.363037	5035.727539	1888.682251	16.686747
353.590881	1369.863525	5222.320313	1902.335449	13.821620
353.958740	1228.781250	5313.341309	1893.233276	16.267408
354.326599	1242.434326	5397.535156	1856.824951	14.786420
354.694397	1219.679199	5659.220215	1925.090576	15.889286
355.062134	1367.588013	5654.669434	1902.335449	12.473461
355.429840	1317.526489	5602.332031	1915.988525	13.967075
355.797516	1244.709839	5811.680176	1881.855713	13.951172
356.165192	1283.393677	6075.640625	2009.284912	15.147200
356.532776	1267.465088	6018.752441	2045.693237	16.379313
356.900360	1256.087524	6332.774414	2047.968750	15.598386
357.267883	1267.465088	6330.499023	2057.070801	15.595505
357.635376	1347.108276	6717.337402	2175.397949	15.423731
358.002808	1203.750488	6853.868652	2193.602051	17.519131
358.370270	1240.158813	7115.553711	2138.989502	15.298217
358.737640	1274.291626	7265.737793	2311.929199	17.318649
359.105011	1342.557251	7115.553711	2227.734863	15.333070
359.472321	1349.383789	6710.510742	2232.285889	16.468592
359.839569	1356.210449	6851.593262	2164.020264	14.699792
360.206787	1360.761475	6699.133301	2152.642578	14.833756
360.574005	1308.424438	7049.563477	2168.571289	14.982163
360.941193	1310.699951	7283.941895	2355.164063	17.485716
361.308319	1240.158813	7645.750000	2427.980713	18.543516
361.675415	1256.087524	8219.180664	2489.419678	17.712418
362.042450	1292.495850	8628.774414	2521.277100	16.749382
362.409424	1233.332275	9168.073242	2519.001465	16.203039
362.776428	1228.781250	9295.502930	2505.348389	15.825105
363.143402	1260.638550	8913.214844	2605.471436	17.573597
363.510284	1344.832764	8376.192383	2489.419678	16.278316
363.877136	1208.301514	7704.913574	2396.123291	18.283710
364.243988	1328.904175	7131.482422	2307.378174	16.862745
364.610779	1310.699951	6892.552734	2214.081787	16.184265
364.977539	1328.904175	6665.000488	2284.622803	17.910446
365.344269	1269.740601	6528.469238	2343.786377	20.424059
365.710938	1326.628662	6578.530762	2241.387939	17.417675
366.077576	1287.944824	6403.315430	2225.459229	18.327400
366.444183	1319.802124	6153.008301	2166.295898	17.514126
366.810760	1287.944824	6303.192383	2268.694336	19.555355
367.177277	1281.118164	6419.244141	2318.755615	20.194862
367.543823	1276.567139	6364.631836	2209.530762	18.336317
367.910248	1258.363037	6271.335449	2261.867676	20.018154
368.276642	1322.077637	6284.988281	2154.918213	16.781294
368.643036	1242.434326	6178.039063	2148.091553	18.349470
369.009399	1242.434326	6127.977539	2152.642578	18.630648
369.375671	1221.954712	6089.293457	2218.632813	20.476858
369.741974	1287.944824	5966.415527	2189.051025	19.260700
370.108215	1319.802124	5959.588867	2211.806152	19.225109
370.474396	1312.975464	6032.405762	2261.867676	20.106075
370.840546	1312.975464	6091.569336	2164.020264	17.809525
371.206665	1299.322388	6073.365234	2352.888428	22.068634
371.572784	1265.189575	6339.601074	2239.112549	19.192825
371.938843	1226.505737	6264.508789	2441.633789	24.119240
372.304840	1272.016113	6523.917969	2355.164063	20.623919
372.670807	1299.322388	6441.999512	2380.194824	21.017698
373.036713	1285.669312	6323.672363	2330.133301	20.731707
373.402649	1256.087524	6344.151855	2316.480225	20.840788
373.768524	1260.638550	6467.030273	2550.858887	24.781469
374.134308	1308.424438	6264.508789	2375.643799	21.533518
374.500122	1276.567139	6391.937988	2336.959961	20.729538
374.865875	1231.056763	6519.367188	2493.970703	23.881237
375.231567	1274.291626	6398.764648	2448.460449	22.912966
375.597260	1226.505737	6503.438477	2564.511963	25.355757
375.962891	1233.332275	6881.174805	2534.930176	23.045931
376.328461	1267.465088	6835.664551	2587.267090	23.702492
376.694031	1267.465088	7024.532715	2655.532715	24.110672
377.059540	1331.179688	7365.860840	2696.492188	22.624435
377.425049	1258.363037	7643.474609	2780.686523	23.841768
377.790497	1249.260864	7782.281250	2912.666504	25.461510
378.155945	1333.455200	8084.925293	2985.483398	24.469162
378.521301	1256.087524	7834.618164	3058.300049	27.395365
378.886597	1369.863525	7973.424805	2905.840088	23.259821
379.251892	1312.975464	7497.840820	2942.248291	26.342899
379.617157	1272.016113	7274.839844	2721.522949	24.147083
379.982422	1196.923950	7056.390137	2924.044189	29.475725
380.347595	1310.699951	7033.634766	2705.594238	24.373758
380.712738	1251.536499	6947.165039	2833.023438	27.766680
381.077820	1260.638550	7042.736816	2876.258301	27.941755
381.442902	1278.842651	7097.349609	2953.625977	28.783730
381.807953	1294.771362	7015.430664	2910.391113	28.241846
382.172974	1267.465088	6938.062988	2910.391113	28.972713
382.537933	1285.669312	6992.675293	2892.187012	28.149921
382.902832	1256.087524	7010.879395	2901.289063	28.588375
383.267700	1242.434326	7088.247070	2939.972900	29.038540
383.632538	1292.495850	7179.268066	2969.554688	28.488596
383.997345	1246.985352	7404.544922	3051.473389	29.305246
384.362152	1292.495850	7582.035156	3087.881836	28.545589
384.726898	1246.985352	7554.729004	3240.341553	31.601732
385.091553	1233.332275	7577.484375	3347.291016	33.321373
385.456238	1315.250977	7559.280273	3244.892578	30.903788
385.820862	1269.740601	7618.443848	3304.056152	32.043011
386.185425	1219.679199	7611.617188	3338.188965	33.143467
386.549988	1258.363037	7609.341797	3297.229736	32.103191
386.914490	1244.709839	7729.944336	3422.383301	33.578945
387.278961	1262.914063	7950.669922	3467.893799	32.970398
387.643372	1258.363037	8057.619141	3524.781738	33.333336
388.007782	1258.363037	8046.241699	3558.914551	33.892052
388.372101	1281.118164	8032.588379	3795.568604	37.243004
388.736450	1240.158813	8005.282227	3777.364502	37.504200
389.100739	1278.842651	8003.006836	3652.210938	35.296108
389.464966	1274.291626	7727.668457	3681.792725	37.306065
389.829163	1317.526489	7907.434570	3713.649902	36.360500
390.193329	1244.709839	7805.036133	3752.333740	38.224075
390.557495	1315.250977	8098.578613	3777.364502	36.296543
390.921570	1210.577026	8264.691406	3804.670898	36.774197
391.285614	1303.873413	8280.620117	3941.202148	37.801697
391.649597	1235.607788	8396.671875	4184.682617	41.182076
392.013550	1285.669312	8967.827148	4605.654297	43.216827
392.377502	1276.567139	9249.992188	4510.082031	40.553650
392.741455	1242.434326	9149.869141	4553.316895	41.870502
393.105316	1253.812012	9036.092773	4721.705566	44.561405
393.469086	1365.312500	8885.909180	4655.715332	43.751884
393.832886	1338.006226	8874.531250	4498.704590	41.938404
394.196655	1353.934937	8958.725586	4835.481934	45.780972
394.560333	1322.077637	9031.541992	4830.930664	45.513577
394.924042	1328.904175	9197.655273	5006.145996	46.732216
395.287659	1287.944824	9407.002930	5069.860352	46.580719
395.651245	1262.914063	9036.092773	4981.115234	47.833729
396.014771	1260.638550	9033.817383	5060.758301	48.887589
396.378296	1353.934937	8526.375977	4862.788086	48.921322
396.741791	1326.628662	8355.711914	4860.512207	50.275173
397.105255	1219.679199	8346.610352	4737.634277	49.361431
397.468628	1206.026001	8305.651367	4710.328125	49.358974
397.832001	1231.056763	8194.150391	4862.788086	52.156864
398.195313	1258.363037	8294.273438	4851.410156	51.067268
398.558624	1281.118164	8251.038086	4808.175293	50.603985
398.921844	1292.495850	8223.732422	4992.492676	53.381485
399.285095	1274.291626	8194.150391	5185.912109	56.527462
399.648254	1297.046875	8173.670898	5119.921875	55.592323
400.011383	1319.802124	8328.406250	5258.728516	56.201294
400.374451	1308.424438	8246.487305	5201.840332	56.116756
400.737549	1335.730713	8380.743164	5402.086426	57.719635
401.100586	1287.944824	8251.038086	5231.422363	56.633991
401.463562	1297.046875	8244.211914	5263.279785	57.091389
401.826508	1351.659302	8576.437500	5615.985352	59.023628
402.189392	1301.597900	8114.507324	5356.576172	59.519043
402.552246	1306.148926	8376.192383	5629.638672	61.152237
402.915070	1292.495850	8483.141602	5707.006348	61.392414
403.277893	1256.087524	8708.417969	5809.404785	61.099239
403.640656	1260.638550	8822.194336	5861.741699	60.848629
404.003326	1276.567139	9006.511719	6178.039063	63.408886
404.366028	1210.577026	8897.286133	6189.416504	64.772057
404.728699	1240.158813	9309.155273	6335.049805	63.141571
405.091248	1269.740601	9766.535156	6573.979492	62.426350
405.453857	1285.669312	9766.535156	6485.234375	61.309361
405.816345	1206.026001	9443.411133	6496.611816	64.226524
406.178833	1301.597900	9541.258789	6592.183594	64.208778
406.541260	1265.189575	9768.810547	6840.215332	65.560608
406.903687	1228.781250	9393.349609	6580.806152	65.551842
407.266052	1356.210449	9275.022461	6555.775391	65.660919
407.628387	1246.985352	9156.695313	6528.469238	66.772156
407.990662	1287.944824	9077.052734	6389.662598	65.498100
408.352905	1224.230225	9083.878906	6469.305664	66.734222
408.715118	1224.230225	9193.104492	6314.570313	63.877781
409.077332	1283.393677	9127.114258	6480.683105	66.260513
409.439484	1258.363037	9074.777344	6601.285645	68.355164
409.801575	1301.597900	9106.633789	6578.530762	67.609329
410.163605	1385.792114	9366.043945	6876.624023	68.805244
410.525635	1333.455200	9545.809570	6933.511719	68.190636
410.887604	1338.006226	9511.676758	7042.736816	69.793983
411.249573	1276.567139	9659.585938	6949.440430	67.671005
411.611481	1260.638550	9418.380859	7049.563477	70.962341
411.973328	1353.934937	9493.472656	6931.236328	68.521111
412.335144	1344.832764	9618.625977	6908.480957	67.244232
412.696930	1342.557251	9498.023438	6749.194824	66.294647
413.058685	1246.985352	9384.248047	6847.041992	68.819908
413.420410	1285.669312	9286.400391	6794.705078	68.856651
413.782104	1319.802124	9513.952148	6906.205566	68.175507
414.143707	1287.944824	9407.002930	6994.951172	70.291481
414.505310	1322.077637	9573.116211	7090.522949	69.911743
414.866852	1292.495850	9689.167969	7015.430664	68.157181
415.228394	1251.536499	9773.362305	7049.563477	68.037376
415.589874	1249.260864	9777.913086	7165.615234	69.370331
415.951324	1285.669312	9889.413086	7336.279297	70.325310
416.312683	1333.455200	10260.323242	7422.749023	68.213104
416.674072	1324.353149	10328.588867	7761.801270	71.493561
417.035370	1253.812012	11052.204102	7886.955078	67.696236
417.396667	1297.046875	10813.274414	8171.395020	72.238167
417.757935	1294.771362	11095.439453	8287.446289	71.348961
418.119141	1272.016113	11559.645508	8378.467773	69.077644
418.480286	1253.812012	11718.931641	8610.570313	70.297890
418.841400	1258.363037	12208.168945	9036.092773	71.030754
419.202484	1260.638550	12606.384766	9199.930664	69.975937
419.563568	1228.781250	12988.672852	9438.860352	69.814240
419.924591	1276.567139	13789.656250	10014.567383	69.830879
420.285553	1324.353149	13853.371094	10226.190430	71.049759
420.646484	1312.975464	14815.916016	10617.580078	68.907990
421.007355	1253.812012	15261.917969	10961.183594	69.298241
421.368225	1301.597900	15935.472656	11461.797852	69.429321
421.729065	1292.495850	16342.790039	12021.576172	71.288177
422.089874	1338.006226	16998.140625	12214.996094	69.456558
422.450592	1351.659302	16809.271484	12171.760742	69.998528
422.811279	1308.424438	16652.261719	12160.382813	70.725189
423.171936	1251.536499	16627.230469	12219.546875	71.333435
423.532593	1226.505737	16358.718750	11782.646484	69.759399
423.893127	1292.495850	16511.179688	12244.577148	71.964706
424.253723	1285.669312	16727.353516	11973.790039	69.216034
424.614197	1244.709839	16938.976563	12278.709961	70.305931
424.974670	1249.260864	17539.714844	12615.487305	69.772316
425.335052	1249.260864	17573.847656	12752.018555	70.462784
425.695496	1253.812012	16836.578125	12019.300781	69.085861
426.055817	1272.016113	16977.660156	12274.159180	70.052155
426.416168	1260.638550	16941.251953	12067.086914	68.915977
426.776398	1292.495850	15944.574219	11263.828125	68.054047
427.136627	1242.434326	15578.215820	11038.551758	68.333336
427.496826	1231.056763	15316.530273	11006.694336	69.402267
427.856995	1240.158813	14397.219727	10528.834961	70.598412
428.217102	1278.842651	14128.708984	10358.170898	70.656982
428.577179	1342.557251	13748.696289	10044.148438	70.139397
428.937195	1249.260864	13798.757813	10128.342773	70.752495
429.297180	1306.148926	13015.978516	9495.748047	69.937813
429.657135	1276.567139	13202.571289	9680.065430	70.463654
430.017059	1244.709839	13459.705078	9541.258789	67.921013
430.376984	1290.220337	13125.204102	9650.483398	70.640259
430.736786	1301.597900	12738.365234	9361.492188	70.473534
431.096588	1303.873413	12840.763672	9322.808594	69.506897
431.456360	1269.740601	12868.070313	9422.931641	70.296249
431.816071	1317.526489	12310.567383	9026.991211	70.130409
432.175781	1292.495850	12574.528320	9270.471680	70.713997
432.535400	1237.883301	12526.742188	9152.144531	70.106827
432.895020	1244.709839	12467.578125	9168.073242	70.600166
433.254578	1274.291626	12886.274414	9331.911133	69.390556
433.614105	1274.291626	12972.744141	9486.646484	70.200348
433.973602	1299.322388	13484.736328	9641.381836	68.459389
434.333038	1290.220337	13334.551758	9659.585938	69.488007
434.692444	1265.189575	13402.817383	9887.137695	71.034874
435.051819	1258.363037	13680.430664	9893.964844	69.518234
435.411133	1367.588013	13744.145508	10064.628906	70.270271
435.770416	1185.546387	13036.458984	9372.870117	69.086021
436.129669	1294.771362	13498.389648	9971.332031	71.098267
436.488861	1306.148926	13343.654297	9625.453125	69.111534
436.848083	1374.414551	13430.124023	9661.861328	68.742928
437.207184	1292.495850	13327.725586	9623.177734	69.219131
437.566254	1310.699951	13689.533203	9816.596680	68.713234
437.925293	1210.577026	13669.053711	9866.658203	69.479454
438.284363	1240.158813	13805.584961	9893.964844	68.869972
438.643311	1274.291626	13839.717773	10041.873047	69.775436
439.002258	1294.771362	13780.553711	10162.475586	71.022415
439.361145	1256.087524	14121.881836	10383.201172	70.940926
439.719971	1237.883301	14793.161133	10724.529297	69.984894
440.078827	1335.730713	14836.395508	10838.305664	70.385979
440.437592	1342.557251	15271.020508	11252.450195	71.148499
440.796295	1297.046875	15534.980469	11266.103516	70.017578
441.155029	1269.740601	16704.597656	11846.361328	68.524254
441.513672	1278.842651	16843.404297	12463.027344	71.856728
441.872253	1294.771362	17109.640625	12155.832031	68.676262
442.230865	1285.669312	16367.821289	11841.810547	69.990952
442.589386	1278.842651	16693.220703	11787.197266	68.172417
442.947876	1272.016113	16247.218750	11630.186523	69.168808
443.306335	1287.944824	15862.655273	11459.522461	69.789230
443.664764	1326.628662	15341.561523	11104.541992	69.767822
444.023102	1269.740601	15691.991211	11227.419922	69.043869
444.381500	1349.383789	15478.092773	11115.918945	69.125458
444.739777	1315.250977	15546.358398	11134.123047	68.995842
445.098022	1335.730713	15846.726563	11286.583008	68.574562
445.456238	1349.383789	15785.288086	11379.879883	69.482979
445.814423	1315.250977	16274.524414	11498.207031	68.071198
446.172577	1265.189575	17212.039063	12271.883789	69.021118
446.530701	1224.230225	17107.365234	12269.608398	69.541550
446.888733	1342.557251	17496.478516	12651.895508	70.009865
447.246765	1308.424438	18634.240234	13345.929688	69.477272
447.604736	1290.220337	17553.367188	12729.263672	70.337204
447.962677	1278.842651	18151.830078	13084.244141	69.966278
448.320587	1340.281738	18422.617188	13184.367188	69.335281
448.678436	1287.944824	17908.349609	12774.773438	69.112808
449.036255	1212.852539	17922.001953	12722.436523	68.881927
449.394043	1292.495850	16818.375000	12083.015625	69.500214
449.751770	1217.403687	17027.722656	12367.455078	70.523888
450.109467	1262.914063	16401.953125	11730.309570	69.141747
450.467163	1237.883301	16558.964844	11730.309570	68.483582
450.824768	1306.148926	16185.779297	11425.389648	68.007332
451.182343	1285.669312	15805.767578	11559.645508	70.756935
451.539886	1224.230225	15603.246094	10913.397461	67.384079
451.897369	1303.873413	15546.358398	11197.837891	69.467964
452.254822	1233.332275	15243.713867	11099.990234	70.423904
452.612274	1253.812012	15794.389648	11318.440430	69.217529
452.969635	1308.424438	15528.154297	11388.981445	70.891342
453.326965	1206.026001	15880.859375	11307.062500	68.832375
453.684326	1201.474976	15423.480469	11072.684570	69.407997
454.041534	1251.536499	15182.274414	10902.020508	69.274750
454.398773	1265.189575	14847.773438	10328.588867	66.728096
454.755951	1294.771362	14483.689453	10185.231445	67.408562
455.113098	1240.158813	13912.534180	10010.015625	69.204521
455.470215	1292.495850	14194.699219	10192.057617	68.977066
455.827240	1208.301514	14096.851563	10276.251953	70.356636
456.184265	1287.944824	14153.739258	9982.709961	67.580475
456.541260	1276.567139	13696.359375	10012.291992	70.337128
456.898193	1349.383789	13985.350586	9980.434570	68.305428
457.255096	1303.873413	14110.504883	10235.292969	69.740585
457.611969	1215.128052	13864.748047	10353.620117	72.243217
457.968781	1215.128052	13905.708008	9934.923828	68.710777
458.325531	1199.199463	14112.780273	10246.669922	70.061668
458.682312	1246.985352	15052.570313	10692.671875	68.419312
459.039001	1276.567139	15748.879883	11109.092773	67.940254
459.395630	1237.883301	16463.392578	11687.075195	68.629501
459.752289	1260.638550	17605.705078	12574.528320	69.218987
460.108856	1285.669312	18859.515625	13427.848633	69.092331
460.465363	1249.260864	19401.089844	13655.400391	68.346504
460.821899	1262.914063	19448.876953	13989.902344	69.982483
461.178345	1231.056763	19037.007813	13575.756836	69.329071
461.534760	1246.985352	18900.476563	13423.296875	68.973953
461.891144	1287.944824	17892.419922	12774.773438	69.179115
462.247467	1285.669312	17127.845703	12235.475586	69.118073
462.603760	1283.393677	16927.599609	11969.239258	68.305450
462.960052	1353.934937	16128.891602	11459.522461	68.396736
463.316254	1267.465088	15466.714844	11140.950195	69.535263
463.672424	1315.250977	15339.286133	10892.917969	68.294662
464.028564	1272.016113	15002.508789	10751.835938	69.042099
464.384644	1226.505737	14688.486328	10633.508789	69.878296
464.740723	1322.077637	15127.662109	10594.825195	67.166649
465.096741	1274.291626	14777.232422	10494.702148	68.284462
465.452698	1283.393677	14438.179688	10592.549805	70.766304
465.808655	1180.995239	14754.476563	10836.030273	71.131607
466.164520	1301.597900	14836.395508	10444.640625	67.552124
466.520355	1356.210449	15475.817383	10804.172852	66.913780
466.876190	1287.944824	15691.991211	11086.336914	68.025276
467.231964	1233.332275	15487.194336	11140.950195	69.508308
467.587677	1231.056763	16151.646484	11416.288086	68.262924
467.943390	1290.220337	16240.391602	11468.625000	68.082191
468.299011	1306.148926	15696.542969	10968.010742	67.141045
468.654633	1249.260864	15305.153320	10897.468750	68.641731
469.010223	1278.842651	15448.510742	11213.766602	70.114021
469.365723	1244.709839	14993.406250	10795.070313	69.463753
469.721191	1235.607788	15309.704102	11106.817383	70.137428
470.076660	1299.322388	14831.844727	10440.089844	67.546661
470.432068	1301.597900	14886.457031	10679.019531	69.028481
470.787445	1322.077637	14642.976563	10547.039063	69.251793
471.142792	1278.842651	14656.629883	10535.661133	69.195435
471.498016	1256.087524	15052.570313	10615.304688	67.837700
471.853271	1237.883301	15027.539063	10749.560547	68.976906
472.208496	1283.393677	14790.884766	10699.499023	69.710243
472.563660	1281.118164	15268.744141	10653.988281	67.008301
472.918762	1328.904175	15300.601563	11077.235352	69.771988
473.273865	1301.597900	15560.011719	11027.173828	68.209381
473.628876	1319.802124	16040.146484	11491.379883	69.098778
473.983917	1340.281738	15919.543945	11480.002930	69.548935
474.338837	1262.914063	16169.850586	11395.808594	67.974358
474.693787	1324.353149	15935.472656	11291.133789	68.213669
475.048645	1322.077637	16106.136719	11111.368164	66.215179
475.403503	1299.322388	16192.606445	11445.870117	68.128342
475.758270	1228.781250	16310.933594	11739.412109	69.689194
476.113037	1315.250977	16115.238281	11484.553711	68.711563
476.467773	1260.638550	16545.312500	11627.911133	67.827896
476.822418	1283.393677	17400.908203	12208.168945	67.782013
477.177063	1376.690063	16936.701172	12233.200195	69.771866
477.531647	1310.699951	17639.837891	12633.691406	69.342247
477.886200	1258.363037	18115.421875	12856.692383	68.803993
478.240723	1292.495850	18581.902344	12904.478516	67.162415
478.595184	1292.495850	18836.761719	13191.194336	67.821007
478.949585	1265.189575	18834.486328	13384.613281	68.980698
479.303986	1285.669312	19052.935547	13407.368164	68.224899
479.658325	1226.505737	19075.691406	13603.063477	69.339622
480.012634	1274.291626	19164.435547	13571.206055	68.735687
480.366913	1267.465088	19801.582031	14169.667969	69.613258
480.721130	1292.495850	20309.023438	14454.108398	69.211441
481.075317	1281.118164	20577.535156	14572.435547	68.879715
481.429474	1201.474976	21674.335938	15282.397461	68.778481
481.783569	1274.291626	22630.054688	15976.431641	68.843895
482.137604	1265.189575	23783.744141	16661.363281	68.371056
482.491669	1240.158813	26095.671875	18251.953125	68.442741
482.845612	1294.771362	28352.988281	19753.796875	68.219666
483.199554	1342.557251	31784.474609	22161.296875	68.388397
483.553436	1312.975464	37136.500000	25954.589844	68.786133
483.907318	1310.699951	43430.589844	30487.427734	69.270668
484.261139	1297.046875	49599.527344	35297.878906	70.391479
484.614899	1262.914063	53445.156250	38517.742188	71.393692
484.968628	1297.046875	53638.578125	38504.085938	71.085121
485.322357	1228.781250	51253.832031	36299.109375	70.105530
485.675964	1338.006226	47840.550781	32972.296875	68.027016
486.029572	1265.189575	43598.980469	30592.101563	69.275421
486.383148	1274.291626	40517.921875	28145.916016	68.473854
486.736694	1292.495850	38324.320313	26746.470703	68.735405
487.090149	1317.526489	38149.105469	26662.277344	68.812553
487.443604	1235.607788	39025.183594	27149.238281	68.573494
487.796997	1283.393677	40593.015625	28261.968750	68.630966
488.150360	1228.781250	41824.074219	29554.464844	69.775780
488.503693	1281.118164	42527.207031	29695.546875	68.889999
488.856964	1253.812012	42363.371094	29490.750000	68.687035
489.210175	1262.914063	40078.746094	27859.201172	68.519173
489.563416	1285.669312	37564.296875	26320.949219	69.008339
489.916565	1233.332275	35600.523438	24992.044922	69.131958
490.269653	1303.873413	33422.847656	23262.648438	68.366989
490.622772	1283.393677	32555.876953	22632.330078	68.267479
490.975769	1312.975464	31993.822266	22400.226563	68.730995
491.328735	1308.424438	33224.878906	23330.914063	69.000427
491.681732	1285.669312	35063.500000	24505.083984	68.741577
492.034607	1385.792114	37218.417969	26038.785156	68.800407
492.387482	1276.567139	38679.300781	26514.369141	67.475822
492.740326	1265.189575	37445.968750	26173.041016	68.842773
493.093079	1221.954712	36148.921875	24737.187500	67.326866
493.445862	1206.026001	33188.472656	22793.892578	67.499107
493.798523	1244.709839	30598.927734	21119.109375	67.705429
494.151215	1231.056763	28186.876953	19492.111328	67.744385
494.503815	1308.424438	26232.203125	18231.472656	67.899208
494.856384	1224.230225	24721.257813	16923.048828	66.811935
495.208923	1158.240112	23590.324219	16440.638672	68.127411
495.561432	1274.291626	22887.187500	15924.094727	67.782692
495.913879	1244.709839	22680.115234	15359.765625	65.849258
496.266296	1342.557251	22429.808594	15355.214844	66.450844
496.618683	1278.842651	22650.533203	15689.715820	67.429726
496.970978	1265.189575	23260.373047	16224.462891	68.011589
497.323273	1265.189575	23301.332031	16379.198242	68.587364
497.675507	1251.536499	23330.914063	16527.107422	69.184792
498.027710	1256.087524	23674.517578	16508.904297	68.036949
498.379852	1292.495850	23333.189453	16249.494141	67.860832
498.731995	1240.158813	23016.892578	16210.810547	68.746078
499.084076	1233.332275	22625.503906	15635.103516	67.322624
499.436096	1328.904175	22416.156250	15744.328125	68.360847
499.788086	1265.189575	21931.468750	15334.734375	68.079720
500.140106	1281.118164	21419.476563	15098.080078	68.610168
500.491943	1265.189575	21059.945313	14583.812500	67.283592
500.843842	1246.985352	20868.800781	14590.639648	68.004173
501.195679	1287.944824	20522.921875	14388.118164	68.106003
501.547455	1237.883301	20181.593750	14208.351563	68.468468
501.899231	1158.240112	20088.296875	13894.330078	67.279724
502.250885	1297.046875	19680.978516	13757.798828	67.780670
502.602600	1278.842651	19781.101563	13835.166016	67.863731
502.954193	1351.659302	19635.468750	13609.889648	67.044182
503.305786	1356.210449	19824.337891	13507.491211	65.795959
503.657379	1262.914063	19576.304688	13830.615234	68.625748
504.008820	1292.495850	19819.787109	14128.708984	69.282730
504.360291	1322.077637	19933.562500	13960.320313	67.905609
504.711700	1326.628662	20202.074219	13837.442383	66.280891
505.063080	1267.465088	20202.074219	13855.646484	66.482391
505.414368	1235.607788	19915.357422	13983.075195	68.242172
505.765656	1319.802124	19906.255859	13937.564453	67.886879
506.116943	1340.281738	19910.806641	13673.604492	66.413429
506.468109	1267.465088	19626.367188	13744.145508	67.959839
506.819305	1281.118164	19701.458984	13725.941406	67.560226
507.170410	1319.802124	19708.285156	13760.074219	67.652527
507.521484	1301.597900	19740.142578	13543.899414	66.395164
507.872559	1235.607788	19828.888672	13739.594727	67.250031
508.223480	1312.975464	19890.328125	13684.982422	66.597252
508.574493	1246.985352	20117.878906	14051.340820	67.852402
508.925385	1290.220337	20229.380859	14003.554688	67.127235
509.276245	1278.842651	20370.462891	14090.024414	67.103683
509.627045	1326.628662	20755.025391	14426.801758	67.427971
509.977814	1356.210449	21071.322266	14586.087891	67.105263
510.328613	1244.709839	21276.119141	14590.639648	66.625015
510.679260	1274.291626	21203.302734	14891.007813	68.326096
511.029999	1276.567139	21619.722656	14895.559570	66.946312
511.380585	1319.802124	21551.457031	15066.223633	67.945122
511.731140	1290.220337	21674.335938	15230.060547	68.385796
512.081726	1246.985352	21806.316406	15437.132813	69.020470
512.432129	1265.189575	22329.685547	15393.898438	67.073570
512.782654	1276.567139	22354.716797	15245.989258	66.274422
513.133057	1196.923950	22693.769531	15252.816406	65.385834
513.483398	1292.495850	22554.962891	15314.254883	65.946060
513.833801	1290.220337	22766.585938	15309.704102	65.278656
514.183960	1221.954712	21949.673828	15339.286133	68.108467
514.534302	1221.954712	22077.103516	14988.855469	66.012001
514.884460	1260.638550	21917.816406	15061.671875	66.809868
515.234619	1276.567139	22036.142578	14877.355469	65.515732
515.584717	1244.709839	21546.906250	15020.712891	67.854736
515.934753	1272.016113	21924.642578	14884.181641	65.910095
516.284851	1283.393677	21936.021484	14859.150391	65.733803
516.634766	1351.659302	22265.970703	15157.244141	66.010231
516.984741	1260.638550	22325.134766	15375.694336	67.008751
517.334595	1242.434326	23080.607422	15885.411133	67.052200
517.684448	1317.526489	24104.591797	16408.781250	66.227287
518.034363	1269.740601	24448.195313	16843.404297	67.190262
518.384094	1244.709839	25312.892578	17278.029297	66.616241
518.733826	1217.403687	26919.410156	18302.013672	66.471893
519.083496	1246.985352	27442.781250	18748.015625	66.808548
519.433167	1281.118164	27818.242188	19009.701172	66.806717
519.782776	1306.148926	27638.476563	18823.107422	66.522636
520.132324	1331.179688	27369.964844	18379.380859	65.472336
520.481873	1251.536499	26696.410156	18304.289063	67.018417
520.831299	1285.669312	25836.263672	17883.318359	67.605896
521.180786	1292.495850	25551.822266	17312.162109	66.035080
521.530151	1249.260864	24982.943359	17380.427734	67.967400
521.879517	1260.638550	24830.482422	16770.587891	65.804207
522.228882	1333.455200	24853.238281	16615.853516	64.976784
522.578064	1276.567139	24018.121094	16690.945313	67.780670
522.927307	1297.046875	24514.185547	16795.619141	66.754875
523.276489	1256.087524	24109.142578	16583.996094	67.071594
523.625610	1303.873413	24650.716797	16768.312500	66.237816
523.974792	1240.158813	25053.484375	17036.824219	66.335396
524.323792	1215.128052	25426.669922	17316.712891	66.503761
524.672852	1237.883301	25956.865234	17658.041016	66.427322
525.021790	1285.669312	26791.982422	18399.861328	67.097870
525.370728	1258.363037	27806.863281	19073.416016	67.103798
525.719604	1260.638550	29531.708984	19924.460938	66.017387
526.068420	1256.087524	30712.705078	21121.384766	67.439163
526.417297	1312.975464	32453.478516	22022.490234	66.503471
526.765991	1272.016113	32951.816406	22470.767578	66.915672
527.114746	1285.669312	34346.710938	23344.568359	66.721725
527.463379	1253.812012	35170.449219	23845.181641	66.608521
527.812012	1244.709839	37238.898438	25438.046875	67.214569
528.160706	1340.281738	40194.800781	27781.833984	68.052711
528.509155	1240.158813	44561.523438	30589.826172	67.748718
528.857727	1231.056763	49645.039063	33896.156250	67.470383
529.206177	1233.332275	53058.320313	36888.468750	68.799118
529.554565	1265.189575	53385.992188	37425.492188	69.377869
529.902893	1285.669312	52464.406250	36301.382813	68.418480
530.251221	1269.740601	50284.457031	34278.445313	67.344475
530.599548	1267.465088	45756.171875	31113.195313	67.086082
530.947876	1267.465088	42800.269531	28981.033203	66.726936
531.296021	1328.904175	39412.019531	26660.001953	66.515297
531.644165	1274.291626	36806.550781	24923.779297	66.557800
531.992249	1358.485962	35138.593750	23633.558594	65.941383
532.340454	1290.220337	33980.351563	22909.943359	66.135323
532.688354	1231.056763	34019.035156	22957.728516	66.264145
533.036438	1290.220337	34681.210938	23706.375000	67.132339
533.384338	1372.139038	36720.078125	25055.759766	67.001427
533.732239	1303.873413	38954.640625	26366.458984	66.565941
534.080139	1308.424438	39666.878906	26869.349609	66.637009
534.427917	1246.985352	39277.765625	26439.275391	66.241837
534.775757	1292.495850	37582.500000	25337.923828	66.259094
535.123474	1294.771362	35686.992188	23972.611328	65.938858
535.471191	1253.812012	33914.363281	22573.166016	65.275551
535.818848	1233.332275	32448.925781	21945.123047	66.350784
536.166382	1267.465088	31852.740234	21237.435547	65.292763
536.513977	1294.771362	31500.035156	20998.505859	65.232780
536.861511	1258.363037	31695.728516	21253.365234	65.692291
537.208984	1347.108276	31741.240234	21203.302734	65.329041
537.556396	1317.526489	31659.320313	21380.792969	66.124191
537.903809	1251.536499	31079.062500	21203.302734	66.890450
538.251160	1276.567139	30391.855469	20568.431641	66.260254
538.598389	1203.750488	29081.156250	19892.603516	67.039429
538.945740	1276.567139	28202.804688	19159.884766	66.415955
539.292969	1246.985352	28007.109375	18914.128906	66.020409
539.640137	1228.781250	27071.871094	18356.626953	66.276306
539.987244	1317.526489	27693.087891	18734.363281	66.033997
540.334351	1276.567139	28002.558594	19264.558594	67.305237
540.681458	1221.954712	29579.494141	20379.564453	67.557373
541.028442	1246.985352	32319.222656	22045.246094	66.935188
541.375366	1242.434326	35366.144531	24216.091797	67.324615
541.722290	1292.495850	38442.648438	26414.246094	67.622200
542.069153	1256.087524	40012.757813	28086.753906	69.228508
542.416016	1269.740601	40902.488281	27852.375000	67.072403
542.762756	1246.985352	39366.511719	27445.056641	68.726112
543.109558	1317.526489	38388.035156	26109.326172	66.877419
543.456299	1260.638550	36763.312500	25019.351563	66.920906
543.802917	1324.353149	35411.656250	24077.285156	66.748993
544.149536	1240.158813	33677.707031	22919.044922	66.832687
544.496094	1342.557251	31429.494141	21699.367188	67.659966
544.842651	1253.812012	30141.548828	20584.361328	66.916107
545.189148	1276.567139	28560.062500	19382.886719	66.363640
545.535583	1276.567139	27556.556641	19250.906250	68.395538
545.882019	1269.740601	26487.062500	18415.789063	67.993141
546.228333	1294.771362	26425.623047	18172.308594	67.158638
546.574707	1294.771362	26177.591797	18559.148438	69.382721
546.920898	1338.006226	26382.388672	18502.259766	68.535347
547.267212	1303.873413	26047.886719	18358.902344	68.925880
547.613342	1253.812012	26214.000000	18550.044922	69.295280
547.959473	1301.597900	26022.855469	17844.634766	66.918266
548.305664	1219.679199	25428.945313	17578.398438	67.572136
548.651611	1283.393677	24718.982422	16661.363281	65.618027
548.997742	1260.638550	23355.945313	16101.584961	67.167870
549.343689	1196.923950	22602.748047	15468.990234	66.673752
549.689575	1224.230225	21342.109375	14972.926758	68.340683
550.035522	1276.567139	20993.955078	14595.190430	67.547600
550.381287	1317.526489	20145.185547	14108.228516	67.935707
550.727173	1328.904175	19917.632813	13639.471680	66.225975
551.072876	1262.914063	19157.609375	13184.367188	66.620041
551.418640	1283.393677	19419.294922	13452.878906	67.101631
551.764282	1283.393677	19257.732422	13147.958984	66.008362
552.109863	1281.118164	18818.556641	13036.458984	67.029984
552.455505	1283.393677	19194.017578	13252.632813	66.827599
552.801025	1256.087524	19549.000000	13289.041016	65.779320
553.146545	1324.353149	19667.326172	13461.981445	66.170448
553.491943	1342.557251	20133.808594	13639.471680	65.439568
553.837341	1272.016113	19744.693359	13664.501953	67.085487
554.182800	1322.077637	19913.082031	13578.032227	65.924118
554.528015	1206.026001	19574.029297	13264.010742	65.646675
554.873352	1326.628662	19121.201172	12920.407227	65.153450
555.218628	1278.842651	18859.515625	12747.467773	65.234276
555.563721	1267.465088	18597.832031	12663.273438	65.756302
555.908875	1269.740601	18315.666016	12360.628906	65.064751
556.254028	1235.607788	18233.748047	12331.046875	65.274429
556.599121	1333.455200	17776.369141	12149.005859	65.776360
556.944031	1256.087524	17728.582031	12030.678711	65.409592
557.289063	1265.189575	17569.296875	11916.902344	65.331467
557.633972	1260.638550	17664.867188	11796.299805	64.225273
557.978882	1258.363037	17546.541016	11809.953125	64.780663
558.323792	1260.638550	17316.712891	11753.064453	65.348640
558.668518	1281.118164	16982.210938	11687.075195	66.275368
559.013306	1301.597900	17100.539063	11693.901367	65.778481
559.358032	1287.944824	17052.751953	11439.042969	64.390877
559.702637	1233.332275	17125.570313	11498.207031	64.590492
560.047363	1258.363037	17114.191406	11391.256836	63.906429
560.391846	1338.006226	17177.906250	11602.880859	64.803909
560.736450	1299.322388	17155.150391	11477.726563	64.193459
561.080933	1278.842651	17202.937500	11646.115234	65.104317
561.425354	1210.577026	17107.365234	11709.830078	66.046379
561.769775	1212.852539	17161.978516	11882.769531	66.899696
562.114136	1253.812012	17239.345703	11689.350586	65.281143
562.458496	1363.036987	17535.164063	11823.606445	64.682709
562.802673	1274.291626	17339.468750	11684.798828	64.801697
563.146912	1269.740601	17141.498047	11748.513672	66.021507
563.491150	1292.495850	17173.355469	11580.125000	64.780052
563.835266	1326.628662	16741.005859	11350.297852	65.028053
564.179443	1367.588013	16809.271484	11555.094727	65.974068
564.523438	1306.148926	17000.416016	11536.890625	65.187767
564.867493	1303.873413	17266.652344	11352.573242	62.950817
565.211426	1269.740601	17309.886719	11705.279297	65.058876
565.555359	1312.975464	17623.908203	11743.962891	63.950893
565.899231	1240.158813	17730.857422	11903.249023	64.661232
566.243042	1242.434326	18254.228516	12221.822266	64.539856
566.586914	1303.873413	18852.689453	12506.262695	63.835587
566.930603	1315.250977	18832.210938	12802.080078	65.575470
567.274292	1276.567139	18980.119141	12836.212891	65.295624
567.617981	1351.659302	19080.242188	12818.008789	64.677193
567.961609	1338.006226	18734.363281	12729.263672	65.480705
568.305237	1267.465088	18622.861328	12349.250977	63.852104
568.648682	1274.291626	18172.308594	12588.180664	66.953941
568.992188	1267.465088	18083.564453	12003.372070	63.843029
569.335632	1233.332275	18053.982422	12035.229492	64.218071
569.679016	1246.985352	17801.398438	11771.269531	63.573887
570.022461	1224.230225	17626.183594	11914.626953	65.177582
570.365662	1233.332275	17878.767578	11789.473633	63.417637
570.708984	1272.016113	17733.132813	11978.341797	65.040092
571.052185	1272.016113	17903.796875	12189.964844	65.645096
571.395386	1246.985352	18067.634766	12123.974609	64.664505
571.738525	1290.220337	18654.718750	12383.383789	63.884155
572.081604	1287.944824	18679.750000	12642.793945	65.288506
572.424683	1328.904175	18966.466797	12519.915039	63.449871
572.767578	1312.975464	19444.326172	13125.204102	65.148087
573.110596	1292.495850	19298.691406	12831.662109	64.084419
573.453552	1319.802124	19221.324219	12938.611328	64.904037
573.796387	1347.108276	19357.855469	12717.885742	63.133289
574.139282	1228.781250	18779.873047	12333.322266	63.269802
574.481995	1244.709839	18443.095703	12503.986328	65.467049
574.824768	1292.495850	18602.382813	12383.383789	64.072563
575.167480	1281.118164	18748.015625	12497.160156	64.213127
575.510132	1287.944824	18085.839844	12060.259766	64.128960
575.852722	1301.597900	18481.779297	12476.680664	65.046364
576.195251	1224.230225	18236.023438	12372.006836	65.529694
576.537842	1224.230225	18060.808594	12253.679688	65.508850
576.880188	1258.363037	17712.654297	11812.228516	64.140503
577.222717	1249.260864	17425.937500	11832.708008	65.424110
577.565063	1231.056763	17052.751953	11432.216797	64.475769
577.907410	1269.740601	17007.242188	11404.910156	64.401390
578.249756	1240.158813	16558.964844	11065.857422	64.141411
578.591919	1221.954712	16053.798828	10799.622070	64.575027
578.934204	1292.495850	15687.440430	10528.834961	64.163773
579.276306	1281.118164	15473.541016	10428.711914	64.454063
579.618469	1217.403687	15177.723633	10167.027344	64.107582
579.960571	1262.914063	15159.519531	10160.200195	64.024887
580.302551	1251.536499	14674.833984	9989.536133	65.095779
580.644531	1283.393677	14836.395508	10119.241211	65.194763
580.986511	1326.628662	14672.558594	9948.577148	64.603577
581.328369	1367.588013	14799.987305	9714.198242	62.137897
581.670227	1246.985352	14313.025391	9843.903320	65.795898
582.012024	1258.363037	14324.403320	9573.116211	63.636364
582.353821	1297.046875	14099.126953	9504.850586	64.113045
582.695496	1203.750488	14194.699219	9682.340820	65.265358
583.037231	1303.873413	14014.932617	9516.227539	64.607948
583.378845	1240.158813	13926.187500	9721.024414	66.852013
583.720398	1287.944824	13919.360352	9247.716797	63.015675
584.062012	1306.148926	13719.115234	9361.492188	64.894585
584.403442	1322.077637	13946.666992	9466.166992	64.509735
584.744934	1269.740601	13580.308594	9402.452148	66.062843
585.086365	1290.220337	13741.870117	9229.512695	63.760971
585.427734	1235.607788	13901.156250	9302.329102	63.690262
585.768982	1274.291626	13628.093750	9245.441406	64.523865
586.110291	1319.802124	13675.879883	9254.542969	64.217308
586.451599	1274.291626	13512.042969	9379.696289	66.232796
586.792725	1312.975464	13557.552734	9279.574219	65.062263
587.133850	1331.179688	13591.685547	9215.859375	64.309578
587.474915	1312.975464	13589.410156	9420.656250	66.042633
587.815979	1267.465088	13593.960938	9306.879883	65.220604
588.157043	1242.434326	13532.522461	9630.003906	68.246620
588.497925	1249.260864	13691.808594	9452.513672	65.929047
588.838867	1265.189575	13744.145508	9502.575195	66.010216
589.179749	1287.944824	14083.198242	9493.472656	64.129463
589.520569	1183.270874	14049.065430	9591.320313	65.351967
589.861450	1258.363037	14272.066406	9548.084961	63.699944
590.202087	1297.046875	13933.013672	9641.381836	66.036377
590.542847	1269.740601	14087.749023	9700.544922	65.773125
590.883484	1349.383789	14287.995117	9520.779297	63.155121
591.224121	1292.495850	13878.401367	9670.963867	66.570244
591.564636	1224.230225	14171.943359	9584.493164	64.569420
591.905151	1269.740601	13914.809570	9566.289063	65.610939
592.245667	1196.923950	13973.973633	9561.738281	65.467499
592.585999	1249.260864	13746.420898	9427.482422	65.440643
592.926453	1278.842651	13364.133789	9504.850586	68.066277
593.266724	1306.148926	13553.001953	9331.911133	65.533257
593.607056	1342.557251	13678.155273	9352.390625	64.932678
593.947388	1269.740601	13568.930664	9325.083984	65.494904
594.287476	1317.526489	13912.534180	9352.390625	63.794041
594.627686	1333.455200	14103.677734	9386.523438	63.061298
594.967773	1256.087524	13944.391602	9575.391602	65.566711
595.307861	1274.291626	14044.514648	9525.330078	64.611542
595.647888	1276.567139	14394.944336	9550.360352	63.070248
595.987854	1272.016113	14572.435547	9807.495117	64.174507
596.327820	1176.444214	14799.987305	9932.648438	64.272591
596.667725	1278.842651	14997.958008	10201.160156	65.035660
597.007568	1231.056763	15792.114258	10419.609375	63.103607
597.347351	1294.771362	16092.483398	10729.081055	63.755192
597.687073	1269.740601	16342.790039	10927.050781	64.070053
598.026794	1294.771362	16269.973633	11013.520508	64.898949
598.366455	1315.250977	16087.931641	10710.875977	63.601353
598.706116	1283.393677	15626.000977	10608.477539	65.016655
599.045654	1256.087524	15179.999023	10101.037109	63.523453
599.385193	1256.087524	14576.986328	9866.658203	64.639565
599.724731	1333.455200	14046.790039	9345.563477	63.021294
600.064087	1287.944824	13860.197266	9336.461914	64.018105
600.403564	1322.077637	13461.981445	9181.726563	64.742264
600.742920	1303.873413	13245.806641	8908.664063	63.681400
601.082153	1276.567139	13172.990234	8908.664063	64.154549
601.421387	1260.638550	13286.765625	8879.082031	63.349102
601.760620	1322.077637	13061.489258	8863.153320	64.237251
602.099854	1283.393677	13043.285156	8949.623047	65.189629
602.438843	1290.220337	13036.458984	8772.132813	63.696243
602.778015	1269.740601	13275.388672	8687.938477	61.789230
603.117065	1328.904175	13568.930664	8956.450195	62.316418
603.456055	1272.016113	14064.994141	9418.380859	63.678406
603.794983	1260.638550	14319.852539	9432.034180	62.571880
604.133850	1278.842651	14745.375000	9946.301758	64.362961
604.472778	1249.260864	15371.142578	10330.864258	64.308731
604.811584	1278.842651	15694.266602	10503.803711	63.993687
605.150330	1249.260864	16167.575195	10642.610352	62.965221
605.489075	1285.669312	16445.189453	10965.734375	63.854694
605.827698	1306.148926	16374.647461	10772.315430	62.820900
606.166382	1269.740601	16128.891602	10911.122070	64.885147
606.504883	1178.719727	15705.644531	10437.813477	63.737465
606.843445	1272.016113	15182.274414	9944.026367	62.342552
607.181946	1310.699951	14708.966797	9796.117188	63.332199
607.520386	1249.260864	14324.403320	9434.309570	62.600075
607.858826	1299.322388	13967.146484	9259.093750	62.834560
608.197083	1240.158813	13505.215820	9261.370117	65.398895
608.535461	1246.985352	13282.214844	9058.848633	64.908302
608.873718	1285.669312	13500.665039	9008.787109	63.226524
609.211914	1281.118164	13744.145508	9104.358398	62.771587
609.550171	1356.210449	14231.107422	9504.850586	63.290916
609.888245	1301.597900	14367.638672	9691.443359	64.211075
610.226318	1349.383789	14570.160156	10164.750977	66.678139
610.564392	1312.975464	14793.161133	9982.709961	64.314651
610.902344	1303.873413	14715.792969	10367.272461	67.577194
611.240295	1297.046875	14504.169922	10606.202148	70.485870
611.578247	1253.812012	14385.842773	10451.466797	70.039848
611.916138	1285.669312	13989.902344	10403.680664	71.771446
612.253845	1317.526489	13671.329102	10101.037109	71.099655
612.591675	1269.740601	13496.114258	9802.943359	69.793411
612.929382	1290.220337	13038.734375	9566.289063	70.443535
613.267090	1328.904175	12674.650391	9163.522461	69.053352
613.604736	1215.128052	12387.935547	9092.981445	70.509163
613.942261	1328.904175	12328.771484	8799.438477	67.914764
614.279785	1322.077637	12162.658203	8626.499023	67.380356
614.617310	1301.597900	11939.657227	8437.630859	67.080215
614.954712	1281.118164	11914.626953	8421.702148	67.151718
615.292175	1251.536499	11828.157227	8278.344727	66.437172
615.629517	1233.332275	11627.911133	8082.649902	65.893166
615.966797	1256.087524	11762.166992	8160.017578	65.713669
616.304138	1235.607788	11734.860352	8030.312988	64.716080
616.641296	1328.904175	11768.993164	8155.466797	65.387970
616.978516	1308.424438	11507.308594	7729.944336	62.962967
617.315552	1285.669312	11623.360352	7798.209961	62.998016
617.652771	1322.077637	11470.900391	7998.455566	65.784752
617.989685	1269.740601	11480.002930	7893.781738	64.876305
618.326721	1262.914063	11864.565430	7968.874023	63.253918
618.663696	1276.567139	11555.094727	8128.160156	66.659286
619.000549	1256.087524	11703.003906	7843.720215	63.058159
619.337463	1276.567139	11586.952148	7857.373535	63.826973
619.674194	1347.108276	11345.747070	7770.903320	64.246696
620.010986	1331.179688	11539.166016	7830.066895	63.664734
620.347778	1265.189575	11566.472656	7754.975098	62.999779
620.684387	1285.669312	11318.440430	7786.832031	64.799271
621.020996	1297.046875	11502.757813	7734.495117	63.076920
621.357605	1283.393677	11382.155273	7552.453613	62.077511
621.694214	1285.669312	11252.450195	7748.148438	64.840179
622.030579	1285.669312	11206.940430	7661.678711	64.266052
622.367065	1249.260864	11179.633789	7597.963867	63.932171
622.703430	1265.189575	11275.206055	7552.453613	62.809727
623.039795	1253.812012	11120.469727	7495.565430	63.261070
623.376160	1228.781250	11068.132813	7504.667480	63.783535
623.712402	1287.944824	10945.254883	7479.636719	64.114037
624.048645	1246.985352	11079.510742	7495.565430	63.550102
624.384766	1290.220337	10988.490234	7334.003418	62.318161
624.720886	1240.158813	11056.755859	7593.413086	64.719521
625.057007	1253.812012	11084.061523	7331.728027	61.828701
625.392944	1340.281738	11059.031250	7470.534668	63.076557
625.729004	1221.954712	11165.980469	7579.759766	63.935932
626.064941	1260.638550	11313.889648	7741.321777	64.463554
626.400818	1322.077637	11366.226563	7818.689453	64.680565
626.736633	1315.250977	11812.228516	8043.965820	64.101448
627.072449	1224.230225	11912.351563	8073.547852	64.083458
627.408264	1251.536499	12406.139648	8169.119629	62.015499
627.743896	1237.883301	12028.403320	8237.385742	64.867149
628.079590	1251.536499	12094.392578	8091.751953	63.084995
628.415161	1287.944824	11998.821289	7973.424805	62.417671
628.750793	1278.842651	11932.831055	7882.404297	61.982059
629.086365	1174.168701	11803.125977	7866.475586	62.962967
629.421753	1185.546387	11414.012695	7750.423828	64.182419
629.757263	1299.322388	11373.052734	7732.219727	63.858147
630.092651	1317.526489	10983.938477	7506.943359	64.030136
630.427917	1260.638550	11065.857422	7329.452637	61.893715
630.763184	1287.944824	10920.224609	7356.758789	63.004963
631.098511	1292.495850	10863.335938	7484.187988	64.693306
631.433716	1278.842651	10640.334961	7188.370117	63.125912
631.768799	1310.699951	10367.272461	7224.778320	65.301506
632.103943	1287.944824	10258.047852	7126.931152	65.093857
632.438965	1274.291626	10201.160156	7115.553711	65.434616
632.773987	1228.781250	10337.691406	7008.604004	63.452408
633.109070	1317.526489	10319.487305	7047.288086	63.650150
633.443848	1235.607788	10237.568359	6712.786133	60.844280
633.778870	1299.322388	10098.761719	6997.226563	64.753036
634.113708	1290.220337	10301.282227	7004.053223	63.409100
634.448425	1262.914063	10417.333984	6924.409668	61.844395
634.783264	1237.883301	10522.007813	6790.154297	59.803925
635.117859	1269.740601	10276.251953	6928.960938	62.834763
635.452576	1290.220337	10456.018555	7117.829102	63.579941
635.787170	1242.434326	10242.119141	7031.359375	64.323639
636.121704	1240.158813	9821.147461	6844.766602	65.314247
636.456177	1290.220337	10057.801758	6683.204590	61.510517
636.790588	1285.669312	9755.157227	6426.070801	60.693176
637.125122	1265.189575	9673.239258	6555.775391	62.922867
637.459412	1310.699951	9791.566406	6469.305664	60.826397
637.793762	1190.097412	9516.227539	6469.305664	63.405304
638.128052	1240.158813	9306.879883	6353.253906	63.385048
638.462280	1303.873413	9368.319336	6405.590820	63.261845
638.796509	1251.536499	9466.166992	6298.641602	61.440437
639.130615	1292.495850	8915.490234	6273.610840	65.343292
639.464722	1324.353149	9236.338867	6218.998535	61.863678
639.798767	1285.669312	9154.419922	6168.937012	62.058998
640.132751	1281.118164	8872.255859	6102.946777	63.519184
640.466736	1262.914063	9140.766602	6000.548340	60.138653
640.800598	1246.985352	9106.633789	6203.069824	63.057331
641.134521	1285.669312	8961.000977	6068.813965	62.318409
641.468262	1326.628662	8883.632813	5982.344238	61.607960
641.802063	1340.281738	8833.571289	5975.517578	61.858490
642.135803	1237.883301	8678.835938	5793.476074	61.223248
642.469421	1262.914063	8749.377930	5813.955566	60.790268
642.803101	1276.567139	8606.019531	5889.047852	62.930767
643.136658	1260.638550	8722.071289	5741.139160	60.048798
643.470215	1246.985352	8526.375977	5620.536621	60.081284
643.803711	1278.842651	8449.008789	5802.578125	63.091084
644.137085	1217.403687	8464.937500	5709.281738	61.978020
644.470581	1310.699951	8410.325195	5743.414551	62.435902
644.803833	1292.495850	8408.049805	5634.189453	61.016945
645.137207	1228.781250	8385.293945	5918.629395	65.532593
645.470459	1233.332275	8371.640625	5647.842773	61.842533
645.803589	1253.812012	8367.089844	5659.220215	61.932182
646.136780	1256.087524	8487.692383	5800.302734	62.838268
646.469849	1256.087524	8455.834961	5875.394531	64.159294
646.802979	1290.220337	8392.121094	5848.088379	64.178146
647.135986	1190.097412	8553.682617	5704.730469	61.310257
647.468994	1226.505737	8371.640625	5811.680176	64.171982
647.801941	1251.536499	8489.967773	5702.455078	61.490097
648.134766	1203.750488	8362.539063	5766.169922	63.731724
648.467651	1292.495850	8492.243164	5768.445313	62.168144
648.800354	1253.812012	8453.559570	5741.139160	62.326172
649.133179	1265.189575	8514.999023	5759.343262	61.989956
649.465881	1274.291626	8455.834961	5777.547363	62.705963
649.798462	1292.495850	8533.203125	5766.169922	61.785042
650.131104	1256.087524	8451.284180	5722.935059	62.080967
650.463623	1351.659302	8410.325195	5761.618652	62.475819
650.796143	1297.046875	8314.752930	5932.282715	66.050583
651.128662	1278.842651	8360.263672	5513.586914	59.800770
651.461060	1306.148926	8389.844727	5752.516602	62.769039
651.793396	1310.699951	8483.141602	5727.485840	61.579956
652.125732	1269.740601	8355.711914	5820.782227	64.226082
652.458008	1306.148926	8596.917969	5809.404785	61.766541
652.790222	1310.699951	8521.825195	5725.210449	61.218060
653.122437	1326.628662	8387.569336	5704.730469	62.004509
653.454529	1326.628662	8337.507813	5716.108398	62.609547
653.786621	1276.567139	8587.815430	5709.281738	60.628704
654.118713	1244.709839	8398.947266	5641.016113	61.450382
654.450623	1253.812012	8269.242188	5597.781250	61.920212
654.782654	1253.812012	8173.670898	5568.199219	62.347908
655.114502	1242.434326	8182.772949	5488.556152	61.180328
655.446350	1262.914063	8046.241699	5499.933594	62.462257
655.778198	1287.944824	8037.139648	5499.933594	62.407276
656.109863	1276.567139	8030.312988	5331.545410	60.040432
656.441650	1249.260864	8037.139648	5342.922852	60.308414
656.773254	1358.485962	8107.680664	5474.902832	60.991230
657.104919	1276.567139	8203.252930	5440.770020	60.118263
657.436462	1283.393677	8037.139648	5454.423340	61.758759
657.767944	1265.189575	8082.649902	5481.729492	61.849133
658.099548	1303.873413	8182.772949	5579.577148	62.156799
658.430908	1256.087524	8285.170898	5602.332031	61.832310
658.762268	1326.628662	8342.059570	5802.578125	63.801491
659.093628	1251.536499	8526.375977	5816.230957	62.746326
659.424927	1237.883301	8758.479492	5850.363770	61.331314
659.756226	1342.557251	9197.655273	6143.906250	61.123985
660.087341	1267.465088	9300.053711	6300.916992	62.662888
660.418518	1274.291626	9529.880859	6341.876465	61.383690
660.749573	1265.189575	9538.983398	6271.335449	60.506050
661.080627	1276.567139	9279.574219	6250.855469	62.155239
661.411621	1276.567139	9179.451172	5909.527344	58.623665
661.742554	1249.260864	8931.418945	6064.262695	62.677723
662.073547	1319.802124	8844.949219	5761.618652	59.026306
662.404297	1297.046875	8592.366211	5686.526367	60.168434
662.735229	1297.046875	8417.151367	5654.669434	61.201664
663.065979	1226.505737	8492.243164	5638.740723	60.726597
663.396667	1297.046875	8144.088867	5570.475098	62.412766
663.727417	1246.985352	8005.282227	5402.086426	61.481483
664.057922	1185.546387	7707.188965	5363.402344	64.061409
664.388611	1301.597900	7454.605957	5317.892090	65.273674
664.719116	1287.944824	7625.270020	5206.391602	61.831242
665.049622	1203.750488	7595.688477	5108.544434	61.089359
665.380005	1262.914063	7516.045410	5151.779297	62.190685
665.710388	1310.699951	7404.544922	5028.900879	61.015682
666.040771	1294.771362	7522.871582	5024.350098	59.883087
666.371033	1290.220337	7456.881836	5024.350098	60.553509
666.701294	1297.046875	7359.034180	5028.900879	61.561562
667.031555	1283.393677	7338.554688	5051.656250	62.232246
667.361633	1258.363037	7543.351563	5188.187500	62.527157
667.691772	1276.567139	7293.043945	4926.502441	60.665661
668.021790	1215.128052	7447.779785	5088.064453	62.139465
668.351807	1276.567139	7440.953125	5049.380859	61.203400
668.681763	1292.495850	7352.207520	4953.808594	60.420574
669.011719	1319.802124	7370.412109	5026.625488	61.263630
669.341614	1324.353149	7461.432617	4956.084473	59.176868
669.671387	1272.016113	7552.453613	5097.166504	60.905796
670.001221	1306.148926	7436.401855	5135.850586	62.472164
670.330933	1315.250977	7443.228516	5031.176270	60.638691
670.660583	1294.771362	7552.453613	4944.706543	58.327267
670.990173	1297.046875	7461.432617	4937.880371	59.062389
671.319763	1310.699951	7388.616211	4928.777832	59.528263
671.649292	1283.393677	7320.350586	4915.125000	60.158314
671.978821	1333.455200	7286.217773	4944.706543	60.665134
672.308289	1224.230225	7147.410645	4855.961426	61.313869
672.637695	1244.709839	7108.727051	4828.655273	61.117580
672.966980	1324.353149	7231.604980	4762.665039	58.204933
673.296326	1317.526489	6974.471191	4826.379395	62.027351
673.625610	1294.771362	7076.869629	4817.277344	60.920895
673.954773	1262.914063	7156.512695	4751.287598	59.189194
674.283936	1299.322388	7035.910156	4671.644043	58.786194
674.613037	1210.577026	6992.675293	4742.185547	61.078320
674.942078	1224.230225	6931.236328	4917.400391	64.712921
675.271118	1249.260864	6865.246094	4739.909668	62.155590
675.600098	1315.250977	6938.062988	4628.409180	58.923512
675.928955	1253.812012	6885.726074	4694.399414	61.090908
676.257813	1319.802124	6767.398926	4614.756348	60.484547
676.586670	1292.495850	6767.398926	4628.409180	60.931000
676.915466	1312.975464	6771.949707	4592.000977	60.066696
677.244141	1342.557251	6724.164063	4626.133789	61.014801
677.572876	1226.505737	6769.674316	4551.041504	59.975368
677.901489	1253.812012	6999.501953	4564.694824	57.623764
678.230042	1262.914063	6901.654785	4746.736328	61.783691
678.558594	1306.148926	6997.226563	4796.797852	61.335464
678.887085	1244.709839	6831.113281	4680.746094	61.507126
679.215515	1292.495850	6862.970703	4846.859375	63.807194
679.543945	1249.260864	6858.419922	4815.001953	63.569977
679.872253	1303.873413	6958.542480	4778.593750	61.448692
680.200562	1312.975464	7088.247070	4842.308105	61.111111
680.528809	1331.179688	7279.391113	4990.217285	61.514923
680.856995	1235.607788	7472.810547	5022.074219	60.707764
681.185120	1212.852539	7611.617188	5172.258789	61.877666
681.513306	1312.975464	7522.871582	4962.910645	58.776108
681.841309	1390.343262	7625.270020	4976.563965	57.518250
682.169373	1331.179688	7388.616211	5049.380859	61.382420
682.497314	1285.669312	7422.749023	4997.043457	60.474594
682.825134	1360.761475	7388.616211	5010.696777	60.551151
683.153076	1308.424438	7268.013672	5065.309082	63.039322
683.480896	1249.260864	7063.216797	4921.951660	63.170258
683.808655	1276.567139	7156.512695	4840.032715	60.603718
684.136414	1240.158813	7088.247070	4778.593750	60.505840
684.464050	1221.954712	6922.134277	4651.164551	60.159683
684.791626	1272.016113	6735.541504	4603.378418	60.974590
685.119263	1285.669312	6783.327637	4521.459961	58.857616
685.446838	1287.944824	6665.000488	4532.837402	60.347015
685.774292	1283.393677	6569.428711	4546.490723	61.730522
686.101685	1297.046875	6521.642578	4428.163574	59.930317
686.429077	1285.669312	6494.336426	4373.550781	59.283524
686.756348	1231.056763	6441.999512	4357.622559	60.000004
687.083679	1194.648438	6426.070801	4457.745117	62.374943
687.410950	1276.567139	6441.999512	4469.123047	61.806168
687.738159	1315.250977	6496.611816	4480.500488	61.089153
688.065308	1328.904175	6569.428711	4491.877930	60.356052
688.392395	1265.189575	6587.632813	4530.562012	61.351006
688.719421	1256.087524	6596.734863	4626.133789	63.101833
689.046448	1276.567139	6594.459473	4460.020996	59.863071
689.373413	1244.709839	6692.306641	4557.868164	60.818714
689.700317	1285.669312	6510.265137	4325.765137	58.188152
690.027100	1290.220337	6298.641602	4314.387207	60.381641
690.353943	1297.046875	6401.040039	4350.795898	59.830585
690.680725	1235.607788	6182.589844	4227.917480	60.487579
691.007446	1308.424438	6325.947754	4396.306152	61.541950
691.334106	1278.842651	6180.314453	4323.489746	62.116997
691.660645	1260.638550	6105.222168	4145.999023	59.558483
691.987244	1308.424438	6021.027832	4107.314941	59.391602
692.313721	1249.260864	5980.068848	4139.172363	61.087059
692.640259	1253.812012	5914.078613	4002.641113	58.984375
692.966675	1267.465088	5941.384766	4168.753906	62.073994
693.293030	1353.934937	5866.292480	3929.824463	57.085232
693.619324	1228.781250	5807.128906	3902.518066	58.399601
693.945618	1158.240112	5941.384766	3943.477539	58.230255
694.271851	1278.842651	5727.485840	4089.110840	63.171352
694.598083	1283.393677	5663.771484	3891.140625	59.532467
694.924194	1335.730713	5479.454102	3945.753174	62.987370
695.250244	1244.709839	5675.148926	3841.079102	58.602978
695.576294	1242.434326	5600.056641	3879.762939	60.522198
695.902283	1285.669312	5668.322266	3779.640137	56.905506
696.228210	1283.393677	5452.147949	3882.038574	62.336246
696.554138	1319.802124	5766.169922	3979.885986	59.826000
696.879944	1242.434326	5738.863281	3836.528076	57.692314
697.205750	1319.802124	5775.271973	4052.702637	61.338097
697.531433	1274.291626	5827.608887	3998.090088	59.820084
697.857178	1206.026001	5893.598633	3934.375488	58.203888
698.182739	1256.087524	6032.405762	4173.305176	61.076702
698.508423	1242.434326	6391.937988	4246.121582	58.329643
698.833984	1251.536499	6528.469238	4521.459961	61.966366
699.159485	1272.016113	6753.745605	4528.286621	59.402248
699.484924	1267.465088	6922.134277	4708.052734	60.845078
699.810303	1272.016113	7249.809082	4689.848145	57.175484
700.135681	1226.505737	7158.788574	4785.420410	59.992329
700.460999	1310.699951	7042.736816	4680.746094	58.793167
700.786255	1299.322388	6944.889648	4796.797852	61.950825
701.111450	1246.985352	6696.857910	4560.143555	60.793316
701.436646	1240.158813	6653.623047	4500.979980	60.235390
701.761719	1235.607788	6376.009277	4257.499512	58.787075
702.086792	1244.709839	6139.354980	4232.468750	61.041378
702.411865	1285.669312	5977.792969	3979.885986	57.419987
702.736816	1290.220337	5877.670410	4014.018799	59.374996
703.061646	1287.944824	5697.904297	4004.916504	61.609901
703.386536	1242.434326	5559.097168	3868.385254	60.832890
703.711365	1281.118164	5452.147949	3859.283203	61.811234
704.036194	1283.393677	5429.392578	3788.742188	60.428104
704.360901	1287.944824	5249.626465	3722.751953	61.458931
704.685547	1237.883301	5131.299316	3661.312988	62.244305
705.010132	1258.363037	5195.014160	3659.037354	60.982655
705.334717	1253.812012	5265.555176	3608.976074	58.706749
705.659302	1246.985352	5097.166504	3554.363525	59.929081
705.983765	1231.056763	4992.492676	3522.506104	60.919533
706.308228	1253.812012	4899.196289	3527.057129	62.359547
706.632568	1178.719727	5101.717773	3631.731201	62.528999
706.956909	1246.985352	4974.288574	3540.710449	61.538464
707.281189	1278.842651	5081.237793	3549.812500	59.724720
707.605408	1262.914063	5038.002930	3538.434814	60.277275
707.929626	1240.158813	4815.001953	3513.404053	63.590065
708.253784	1365.312500	4978.839355	3636.282227	62.846352
708.577820	1317.526489	4978.839355	3604.425049	62.461155
708.901855	1246.985352	5008.421387	3527.057129	60.617054
709.225830	1312.975464	5131.299316	3536.159424	58.224087
709.549805	1322.077637	5169.983398	3668.139648	60.969841
709.873718	1303.873413	5060.758301	3561.189941	60.084793
710.197510	1242.434326	5058.482910	3531.608398	59.988075
710.521362	1372.139038	5138.125977	3615.802490	59.577042
710.845093	1331.179688	5024.350098	3629.455566	62.230431
711.168701	1278.842651	5210.942871	3640.833252	60.069447
711.492432	1212.852539	5208.666992	3681.792725	61.788158
711.816040	1246.985352	5261.003906	3686.343750	60.770981
712.139587	1246.985352	5392.984375	3793.293213	61.416027
712.463074	1267.465088	5470.352051	3709.098877	58.094208
712.786499	1226.505737	5438.494629	3768.262451	60.345764
713.109924	1308.424438	5395.259766	3850.181152	62.193764
713.433350	1235.607788	5340.647461	3756.884766	61.419064
713.756592	1340.281738	5301.963379	3686.343750	59.218842
714.079834	1249.260864	5251.901855	3649.935303	59.977257
714.403015	1272.016113	5119.921875	3583.945313	60.082790
714.726196	1231.056763	5133.574707	3640.833252	61.749268
715.049255	1208.301514	5199.564941	3531.608398	58.209812
715.372375	1274.291626	4956.084473	3517.955078	60.939426
715.695435	1303.873413	4994.768066	3513.404053	59.864368
716.018311	1260.638550	5069.860352	3431.485352	56.989246
716.341248	1262.914063	5179.085449	3586.220703	59.325970
716.664063	1317.526489	5069.860352	3492.924316	57.974529
716.987000	1256.087524	5126.748535	3604.425049	60.670189
717.309692	1283.393677	5247.351074	3520.230713	56.429386
717.632385	1244.709839	5017.523438	3686.343750	64.716522
717.955078	1281.118164	4896.920898	3511.128662	61.674007
718.277649	1328.904175	4874.165527	3433.760986	59.370998
718.600220	1221.954712	4880.992188	3269.923340	55.970146
718.922791	1219.679199	4758.113770	3354.117676	60.321548
719.245300	1262.914063	4541.939453	3260.821289	60.929909
719.567688	1317.526489	4582.898926	3233.515137	58.675957
719.890015	1335.730713	4512.357910	3092.432861	55.300861
720.212341	1292.495850	4639.787109	3162.973877	55.880348
720.534607	1294.771362	4464.571777	3208.484375	60.373299
720.856873	1237.883301	4241.570801	3167.524902	64.242424
721.179016	1219.679199	4339.417969	3024.167236	57.841000
721.501160	1340.281738	4250.672852	3158.422852	62.470680
721.823242	1267.465088	4241.570801	3078.779541	60.902828
722.145264	1274.291626	4205.162598	3005.962891	59.083843
722.467224	1303.873413	4214.264648	2965.003662	57.075844
722.789185	1306.148926	4218.815430	2994.585449	57.968754
723.111023	1276.567139	4241.570801	2971.830078	57.175747
723.432861	1256.087524	4080.008789	2978.656738	60.999191
723.754578	1240.158813	4070.906738	2946.799316	60.289383
724.076294	1360.761475	4093.661865	2926.319824	57.285599
724.397949	1319.802124	4125.519043	2965.003662	58.637478
724.719666	1260.638550	4093.661865	2946.799316	59.518066
725.041260	1215.128052	4118.692871	2919.493164	58.699051
725.362732	1249.260864	4134.621094	2937.697266	58.517349
725.684265	1283.393677	4036.773926	2910.391113	59.090908
726.005676	1290.220337	4107.314941	2933.146240	58.319866
726.327087	1244.709839	4039.049316	2969.554688	61.726391
726.648438	1217.403687	4268.876953	2912.666504	55.555553
726.969666	1269.740601	4196.060547	2971.830078	58.164848
727.290894	1246.985352	4182.407227	2974.105713	58.837212
727.612061	1301.597900	4216.540039	2983.207764	57.689304
727.933228	1294.771362	4225.642090	3174.351563	64.130440
728.254395	1310.699951	4291.632324	3003.687500	56.793892
728.575378	1262.914063	4252.948242	3140.218750	62.785393
728.896301	1265.189575	4394.030762	3165.249512	60.727272
729.217285	1278.842651	4389.479492	3108.361328	58.814926
729.538147	1201.474976	4355.346680	3060.575439	58.946613
729.858948	1290.220337	4446.367676	3033.269287	55.227108
730.179810	1199.199463	4414.510254	3117.463379	59.660294
730.500549	1174.168701	4364.448730	3005.962891	57.417976
730.821228	1285.669312	4412.234863	3069.677490	57.059677
731.141846	1235.607788	4291.632324	3044.646729	59.195827
731.462402	1237.883301	4391.755371	3087.881836	58.658009
731.782898	1262.914063	4366.724609	3067.402100	58.137829
732.103455	1297.046875	4516.908691	3169.800537	58.162548
732.423889	1294.771362	4343.969238	3137.943115	60.447762
732.744263	1276.567139	4259.774902	3147.045166	62.700226
733.064636	1274.291626	4455.469727	3060.575439	56.151642
733.384888	1301.597900	4475.949219	3110.636963	56.989250
733.705200	1199.199463	4405.408203	3162.973877	61.249111
734.025330	1285.669312	4405.408203	3149.320801	59.737423
734.345520	1235.607788	4544.214844	3151.596191	57.909218
734.665527	1301.597900	4296.183105	3074.228516	59.194530
734.985596	1308.424438	4282.530273	3110.636963	60.596783
735.305542	1253.812012	4405.408203	3192.555664	61.516247
735.625549	1308.424438	4287.081055	3044.646729	58.288769
735.945435	1240.158813	4186.958496	2914.942139	56.833969
736.265259	1301.597900	4293.907715	2899.013428	53.384029
736.585083	1301.597900	4155.101074	2880.809326	55.342899
736.904785	1276.567139	4000.365479	2908.115479	59.899750
737.224426	1308.424438	4073.182129	2860.329590	56.131683
737.544128	1256.087524	4000.365479	2837.574463	57.628529
737.863708	1310.699951	3975.334961	2885.360352	59.094788
738.183289	1201.474976	4007.192139	2769.308838	55.879967
738.502808	1294.771362	4105.039551	2939.972900	58.542511
738.822205	1294.771362	3995.814453	2908.115479	59.730412
739.141541	1303.873413	4029.947266	2914.942139	59.098503
739.460938	1287.944824	4004.916504	2985.483398	62.479069
739.780212	1283.393677	4209.713379	2899.013428	55.209949
740.099426	1287.944824	4132.345703	3015.064941	60.719997
740.418640	1299.322388	4118.692871	2908.115479	57.062138
740.737793	1226.505737	4148.274414	3017.340576	61.292835
741.056885	1244.709839	3988.988037	2892.187012	60.033165
741.375977	1290.220337	3934.375488	2926.319824	61.876076
741.694946	1287.944824	4039.049316	2953.625977	60.545906
742.013855	1208.301514	4023.120850	2842.125488	58.043652
742.332703	1281.118164	3925.273438	2853.503174	59.466438
742.651550	1208.301514	3886.589600	2805.717041	59.643154
742.970398	1267.465088	3800.119629	2807.992676	60.826599
743.289124	1292.495850	3909.344727	2785.237549	57.043480
743.607788	1253.812012	3795.568604	2730.625000	58.102062
743.926453	1324.353149	3763.711426	2748.829102	58.395515
744.245056	1219.679199	3843.354736	2714.696289	56.981781
744.563599	1237.883301	3884.313965	2719.247314	55.975925
744.882141	1281.118164	3763.711426	2703.318604	57.286888
745.200500	1260.638550	3634.006836	2673.737061	59.539795
745.518860	1278.842651	3634.006836	2623.675537	57.101452
745.837219	1251.536499	3661.312988	2600.920166	55.996220
746.155518	1276.567139	3586.220703	2596.369141	57.142857
746.473755	1312.975464	3654.486328	2637.328613	56.559772
746.791992	1283.393677	3588.496338	2635.052979	58.637707
747.110107	1292.495850	3474.720215	2623.675537	61.001045
747.428162	1301.597900	3568.016602	2571.338623	56.024101
747.746216	1285.669312	3608.976074	2716.971924	61.606274
748.064148	1281.118164	3588.496338	2673.737061	60.355034
748.382080	1176.444214	3686.343750	2621.399902	57.570263
748.700073	1242.434326	3693.170166	2653.257324	57.567322
749.017822	1276.567139	3629.455566	2635.052979	57.736942
749.335632	1319.802124	3672.690674	2564.511963	52.901348
749.653320	1294.771362	3654.486328	2582.716064	54.580524
749.971008	1306.148926	3629.455566	2614.573486	56.317341
750.288696	1274.291626	3704.547852	2630.501953	55.805237
750.606262	1278.842651	3813.772949	2600.920166	52.154396
750.923828	1283.393677	3661.312988	2705.594238	59.808609
751.241272	1246.985352	3629.455566	2541.756836	54.345757
751.558716	1260.638550	3699.996826	2580.440674	54.104477
751.876038	1249.260864	3590.771729	2632.777588	59.086498
752.193481	1306.148926	3636.282227	2621.399902	56.445309
752.510681	1281.118164	3615.802490	2614.573486	57.115017
752.827942	1269.740601	3536.159424	2628.226563	59.939754
753.145081	1246.985352	3659.037354	2655.532715	58.396229
753.462219	1285.669312	3608.976074	2566.787354	55.142014
753.779297	1328.904175	3574.843262	2614.573486	57.244179
754.096375	1340.281738	3634.006836	2591.818115	54.563488
754.413330	1203.750488	3570.292236	2607.746826	59.326920
754.730286	1237.883301	3461.067139	2589.542725	60.798367
755.047119	1269.740601	3583.945313	2676.012451	60.766964
755.363892	1276.567139	3454.240479	2589.542725	60.292587
755.680725	1287.944824	3554.363525	2646.430664	59.939754
755.997498	1276.567139	3360.944336	2525.828125	59.934498
756.314148	1260.638550	3438.312012	2573.614014	60.292580
756.630737	1235.607788	3411.005615	2562.236328	60.983257
756.947327	1290.220337	3577.118652	2512.175049	53.432838
757.263855	1301.597900	3522.506104	2475.766602	52.868855
757.580261	1242.434326	3385.974854	2493.970703	58.386410
757.896729	1333.455200	3463.342773	2528.103516	56.089733
758.213074	1215.128052	3431.485352	2559.960938	60.677616
758.529419	1269.740601	3506.577637	2698.767578	63.886059
758.845642	1290.220337	3536.159424	2598.644775	58.257347
759.161865	1292.495850	3554.363525	2650.981689	60.060360
759.478149	1310.699951	3608.976074	2580.440674	55.247528
759.794189	1276.567139	3558.914551	2600.920166	58.025917
760.110229	1246.985352	3595.322754	2587.267090	57.073643
760.426270	1208.301514	3604.425049	2587.267090	57.549854
760.742249	1269.740601	3649.935303	2598.644775	55.831741
761.058105	1290.220337	3652.210938	2612.297852	55.973019
761.374023	1199.199463	3652.210938	2637.328613	58.627087
761.689819	1310.699951	3561.189941	2610.022461	57.735092
762.005554	1281.118164	3581.669678	2646.430664	59.347183
762.321289	1299.322388	3563.465576	2580.440674	56.582920
762.636902	1240.158813	3659.037354	2664.634766	58.889935
762.952515	1278.842651	3645.384277	2657.808350	58.269238
763.268127	1299.322388	3715.925537	2726.073975	59.039551
763.583618	1344.832764	3775.089111	2648.706299	53.651688
763.899048	1256.087524	4125.519043	2878.533936	56.542431
764.214478	1287.944824	4398.581543	3124.290039	59.034382
764.529785	1276.567139	4728.532227	3276.750000	57.943310
764.845093	1360.761475	4994.768066	3404.179199	56.230434
765.160400	1297.046875	5001.594727	3440.587402	57.862408
765.475586	1269.740601	4885.542969	3258.545898	55.003155
765.790771	1331.179688	4701.226074	3317.709229	58.946651
766.105835	1349.383789	4514.633301	3253.994629	60.172535
766.420837	1356.210449	4332.591797	3058.300049	57.186543
766.735840	1303.873413	4266.601563	2928.595215	54.838711
767.050842	1322.077637	4105.039551	2889.911377	56.336872
767.365662	1260.638550	3886.589600	2823.921387	59.532059
767.680542	1292.495850	3872.936523	2705.594238	54.761902
767.995300	1235.607788	3795.568604	2753.380127	59.288887
768.309998	1260.638550	3645.384277	2673.737061	59.255733
768.624817	1190.097412	3768.262451	2580.440674	53.927628
768.939392	1267.465088	3579.394287	2580.440674	56.791340
769.254028	1322.077637	3549.812500	2512.175049	53.421860
769.568481	1342.557251	3586.220703	2464.388916	49.999996
769.882935	1312.975464	3467.893799	2462.113525	53.326290
770.197388	1240.158813	3404.179199	2505.348389	58.464767
770.511841	1260.638550	3399.628174	2412.052002	53.829781
770.826172	1299.322388	3249.443604	2493.970703	61.260208
771.140442	1306.148926	3304.056152	2473.491211	58.428253
771.454651	1262.914063	3235.790527	2509.899414	63.206459
771.768860	1212.852539	3258.545898	2432.531738	59.621799
772.082886	1381.241089	3213.035400	2473.491211	59.627335
772.397034	1292.495850	3224.413086	2405.225586	57.597176
772.711060	1299.322388	3313.158203	2396.123291	54.463272
773.025024	1272.016113	3263.096924	2359.715088	54.628571
773.338928	1226.505737	3258.545898	2309.653564	53.303467
773.652771	1228.781250	3162.973877	2348.337402	57.882351
773.966614	1290.220337	3103.810303	2384.745850	60.351322
774.280457	1283.393677	3144.769775	2371.092773	58.435215
774.594116	1274.291626	3169.800537	2302.827148	54.261707
774.907776	1237.883301	3151.596191	2236.836914	52.199764
775.221375	1253.812012	3167.524902	2250.489990	52.080853
775.534912	1310.699951	3185.729004	2368.817139	56.432041
775.848450	1274.291626	3112.912354	2245.938965	52.846535
776.161926	1267.465088	3078.779541	2316.480225	57.914577
776.475342	1299.322388	3101.534912	2309.653564	56.060600
776.788696	1322.077637	3144.769775	2316.480225	54.556805
777.101990	1274.291626	3005.962891	2257.316650	56.767414
777.415283	1301.597900	2987.758789	2275.520752	57.759781
777.728516	1310.699951	3071.953125	2261.867676	54.005169
778.041626	1303.873413	2958.177002	2252.765625	57.359013
778.354736	1262.914063	3005.962891	2339.235352	61.749348
778.667725	1317.526489	3053.749023	2184.500000	49.934471
778.980774	1333.455200	2960.452637	2173.122314	51.608387
779.293640	1210.577026	2974.105713	2332.408936	63.612911
779.606567	1256.087524	2994.585449	2286.898438	59.293194
779.919434	1324.353149	2978.656738	2202.704102	53.094906
780.232239	1333.455200	2901.289063	2298.276123	61.538467
780.544983	1251.536499	2912.666504	2248.214600	60.000008
780.857666	1201.474976	2958.177002	2225.459229	58.290150
781.170227	1233.332275	2958.177002	2230.010498	57.783649
781.482849	1267.465088	2919.493164	2193.602051	56.060608
781.795410	1237.883301	2955.901611	2166.295898	54.039738
782.107910	1297.046875	2792.063965	2195.877686	60.121777
782.420288	1256.087524	2887.635986	2289.173828	63.319374
782.732666	1283.393677	2794.339600	2241.387939	63.403610
783.044983	1265.189575	2730.625000	2193.602051	63.354034
783.357300	1240.158813	2860.329590	2118.509766	54.213478
783.669495	1258.363037	2744.278076	2207.255127	63.859108
783.981689	1281.118164	2787.512939	2111.683350	55.135956
784.293762	1267.465088	2757.931152	2095.754639	55.572521
784.605835	1276.567139	2835.298828	2095.754639	52.554749
784.917908	1258.363037	2764.757813	2079.825928	54.531715
785.229858	1251.536499	2767.033203	2111.683350	56.756760
785.541748	1253.812012	2778.410889	2093.479248	55.074635
785.853577	1285.669312	2757.931152	2034.315552	50.850075
786.165405	1319.802124	2662.359375	2036.591064	53.389824
786.477173	1301.597900	2701.043213	2152.642578	60.813000
786.788879	1260.638550	2685.114502	2068.448486	56.709270
787.100525	1242.434326	2671.461426	2093.479248	59.554150
787.412109	1308.424438	2644.155273	2102.581299	59.454857
787.723694	1242.434326	2678.288086	2070.723877	57.686207
788.035156	1262.914063	2666.910400	2059.346436	56.726101
788.346558	1272.016113	2810.268311	2098.030273	53.698227
788.658081	1260.638550	2798.890625	2059.346436	51.923080
788.969360	1292.495850	2739.727051	2066.172852	53.459114
789.280640	1258.363037	2780.686523	2143.540527	58.146477
789.591919	1331.179688	2869.431641	2166.295898	54.289951
789.903076	1310.699951	2926.319824	2252.765625	58.309860
790.214172	1292.495850	2883.084961	2129.887451	52.646633
790.525269	1301.597900	2812.543701	2184.500000	58.433739
790.836365	1276.567139	2876.258301	2164.020264	55.476528
791.147339	1269.740601	2780.686523	2102.581299	55.120483
791.458191	1315.250977	2694.216553	2063.897461	54.290440
791.769104	1274.291626	2830.747803	2098.030273	52.923985
792.079895	1324.353149	2598.644775	2050.244141	56.964275
792.390686	1262.914063	2671.461426	2145.816162	62.681747
792.701416	1331.179688	2655.532715	2004.733887	50.859112
793.012085	1251.536499	2646.430664	2084.376953	59.706356
793.322693	1240.158813	2694.216553	1984.254150	51.173714
793.633240	1251.536499	2623.675537	1988.805176	53.731339
793.943787	1251.536499	2603.195801	1877.304688	46.296295
794.254272	1217.403687	2628.226563	1954.672363	52.258060
794.564636	1260.638550	2605.471436	2052.519775	58.883244
794.875000	1278.842651	2575.889648	1981.978638	54.210526
795.185303	1262.914063	2619.124512	2020.662476	55.872478
795.495544	1253.812012	2596.369141	1950.121338	51.864410
795.805786	1306.148926	2596.369141	1975.152100	51.851860
796.115906	1376.690063	2612.297852	1997.907227	50.276241
796.426025	1249.260864	2553.134277	2061.621826	62.303669
796.736023	1269.740601	2673.737061	2057.070801	56.077789
797.045959	1262.914063	2739.727051	1997.907227	49.768871
797.355896	1276.567139	2646.430664	2113.958740	61.129562
797.665833	1262.914063	2694.216553	2098.030273	58.346592
797.975708	1285.669312	2773.859863	2063.897461	52.293583
798.285461	1206.026001	2812.543701	2118.509766	56.798862
798.595154	1233.332275	2671.461426	2052.519775	56.962025
798.904846	1262.914063	2644.155273	2004.733887	53.706753
799.214478	1335.730713	2607.746826	2041.142212	55.456177
799.524109	1287.944824	2612.297852	1952.396851	50.171822
799.833557	1262.914063	2694.216553	1984.254150	50.397461
800.143005	1315.250977	2623.675537	1943.294800	48.000004
800.452393	1240.158813	2605.471436	1968.325439	53.333324
800.761780	1274.291626	2646.430664	1888.682251	44.776119
801.071106	1272.016113	2455.286865	1900.059814	53.076923
801.380371	1308.424438	2455.286865	1859.100464	48.015873
801.689575	1319.802124	2537.205811	1895.508789	47.289711
801.998718	1244.709839	2509.899414	1984.254150	58.453239
802.307800	1299.322388	2427.980713	1984.254150	60.685482
802.616882	1312.975464	2448.460449	1975.152100	58.316635
802.925903	1342.557251	2603.195801	1909.161987	44.945850
803.234863	1253.812012	2359.715088	1947.845825	62.757202
803.543701	1274.291626	2387.021240	1893.233276	55.623726
803.852539	1228.781250	2484.868652	2054.795166	65.760864
804.161316	1258.363037	2484.868652	1881.855713	50.834881
804.470032	1317.526489	2348.337402	1956.947876	62.030910
804.778809	1256.087524	2425.705078	1931.917114	57.782101
805.087341	1228.781250	2407.500977	1929.641602	59.459457
805.395935	1244.709839	2375.643799	1806.763550	49.698189
805.704468	1258.363037	2446.184814	1950.121338	58.237549
806.012939	1237.883301	2389.296875	1920.539551	59.288536
806.321350	1299.322388	2455.286865	1802.212524	43.503944
806.629761	1258.363037	2489.419678	1829.518677	46.395561
806.938049	1326.628662	2466.664551	1961.498901	55.688618
807.246277	1299.322388	2423.429688	1961.498901	58.906879
807.554504	1294.771362	2500.797363	1845.447388	45.660378
807.862671	1251.536499	2500.797363	1884.131226	50.637520
808.170715	1260.638550	2357.439453	1861.375977	54.771786
808.478821	1262.914063	2400.674561	1868.202637	53.200001
808.786804	1260.638550	2393.847900	1909.161987	57.228916
809.094727	1274.291626	2355.164063	1904.610962	58.315792
809.402649	1274.291626	2455.286865	1834.069824	47.398853
809.710510	1253.812012	2398.398926	1845.447388	51.689861
810.018311	1385.792114	2466.664551	1913.713013	48.842110
810.326050	1256.087524	2409.776611	1802.212524	47.337276
810.633667	1258.363037	2393.847900	1870.478149	53.907818
810.941345	1242.434326	2368.817139	1797.661377	49.292927
811.248901	1246.985352	2307.378174	1770.355225	49.356224
811.556396	1267.465088	2339.235352	1861.375977	55.414009
811.863892	1283.393677	2334.684326	1815.865601	50.649353
812.171326	1347.108276	2316.480225	1715.742676	38.028168
812.478699	1308.424438	2280.071777	1790.834839	49.648712
812.786011	1228.781250	2250.489990	1834.069824	59.242771
813.093262	1297.046875	2259.592041	1729.395752	44.917255
813.400391	1235.607788	2302.827148	1813.590088	54.157780
813.707642	1331.179688	2216.357178	1763.528564	48.843185
814.014709	1190.097412	2239.112549	1809.039063	59.002167
814.321716	1338.006226	2182.224365	1731.671387	46.630741
814.628723	1249.260864	2327.857666	1902.335449	60.548538
814.935669	1283.393677	2232.285889	1811.314575	55.635498
815.242554	1310.699951	2223.183838	1786.283813	52.119701
815.549438	1274.291626	2236.836914	1852.273926	60.047283
815.856201	1262.914063	2277.796387	1831.794189	56.053802
816.162964	1322.077637	2286.898438	1733.946899	42.688679
816.469604	1206.026001	2275.520752	1815.865601	57.021278
816.776184	1294.771362	2261.867676	1820.416626	54.352940
817.082825	1251.536499	2357.439453	1763.528564	46.296291
817.389343	1212.852539	2346.062012	1813.590088	53.012047
817.695801	1347.108276	2309.653564	1827.243164	49.881798
818.002197	1331.179688	2377.919189	1733.946899	38.478268
818.308533	1319.802124	2311.929199	1724.844727	40.825676
818.614868	1315.250977	2275.520752	1784.008301	48.815170
818.921143	1303.873413	2352.888428	1795.385864	46.854664
819.227356	1297.046875	2225.459229	1843.171875	58.823540
819.533447	1262.914063	2332.408936	1815.865601	51.702122
819.839539	1326.628662	2230.010498	1872.753662	60.453396
820.145569	1281.118164	2409.776611	2029.764526	66.330643
820.451538	1212.852539	2514.450439	2009.284912	61.188820
820.757568	1315.250977	2653.257324	2077.550537	56.972790
821.063416	1226.505737	2641.879639	2129.887451	63.826366
821.369263	1269.740601	2796.614990	2175.397949	59.314465
821.675049	1297.046875	2871.707275	2175.397949	55.780350
821.980713	1265.189575	3017.340576	2305.102539	59.350647
822.286438	1301.597900	3226.688477	2455.286865	59.929073
822.592102	1299.322388	3754.609375	2635.052979	54.402214
822.897583	1310.699951	5192.738281	3527.057129	57.092613
823.203125	1242.434326	7254.360352	4824.104004	59.576080
823.508545	1322.077637	9429.757813	6059.711914	58.433907
823.813965	1258.363037	10540.211914	6432.897461	55.748962
824.119263	1276.567139	10035.046875	6023.303711	54.195896
824.424622	1244.709839	8651.530273	5238.249023	53.917049
824.729858	1292.495850	7363.585449	4585.174316	54.235378
825.035095	1308.424438	6391.937988	4086.835449	54.655331
825.340149	1237.883301	5595.505859	3629.455566	54.882500
825.645264	1308.424438	5106.268555	3411.005615	55.362488
825.950256	1283.393677	4642.062500	3185.729004	56.639561
826.255310	1267.465088	4337.142578	2980.932129	55.819122
826.560242	1308.424438	4200.611328	2876.258301	54.209282
826.865112	1351.659302	3918.446777	2780.686523	55.673763
827.169922	1265.189575	3820.599365	2655.532715	54.407837
827.474670	1333.455200	3677.241699	2716.971924	59.029125
827.779419	1290.220337	4009.467773	2930.870850	60.334724
828.084045	1287.944824	4516.908691	3090.157227	55.813953
828.388672	1356.210449	5024.350098	3395.077148	55.583126
828.693176	1315.250977	5231.422363	3486.097900	55.432888
828.997681	1240.158813	4683.021973	3162.973877	55.849300
829.302124	1210.577026	4346.244629	2903.564453	53.991295
829.606567	1244.709839	3888.864990	2753.380127	57.056797
829.910828	1242.434326	3495.199951	2493.970703	55.555553
830.215149	1287.944824	3313.158203	2361.990479	53.033703
830.519348	1308.424438	3035.544678	2357.439453	60.737812
830.823547	1299.322388	3028.718262	2177.673340	50.789467
831.127686	1240.158813	2848.952148	2161.744873	57.284306
831.431763	1258.363037	2650.981689	2125.336426	62.254902
831.735779	1290.220337	2525.828125	1981.978638	55.985264
832.039734	1299.322388	2559.960938	2022.937988	57.400719
832.343628	1246.985352	2425.705078	1840.896362	50.386108
832.647461	1212.852539	2425.705078	1795.385864	48.030022
832.951233	1272.016113	2402.949951	1890.957764	54.728371
833.255127	1251.536499	2371.092773	1888.682251	56.910561
833.558777	1242.434326	2468.940186	1886.406738	52.504635
833.862366	1260.638550	2537.205811	1959.223389	54.723701
834.165955	1246.985352	2680.563477	1977.427612	50.952385
834.469482	1349.383789	3076.504150	2132.163086	45.322800
834.773010	1312.975464	3347.291016	2427.980713	54.809849
835.076416	1224.230225	3722.751953	2612.297852	55.555557
835.379822	1235.607788	3652.210938	2512.175049	52.824863
835.683105	1299.322388	3542.985840	2541.756836	55.375256
835.986389	1244.709839	3274.474365	2359.715088	54.932739
836.289612	1251.536499	3124.290039	2245.938965	53.098415
836.592773	1253.812012	2930.870850	2173.122314	54.816818
836.895874	1253.812012	2755.655762	2207.255127	63.484840
837.198914	1256.087524	2562.236328	1984.254150	55.749134
837.501892	1317.526489	2498.521729	2002.458252	57.996151
837.804871	1349.383789	2423.429688	1827.243164	44.491524
838.107666	1249.260864	2450.735840	1881.855713	52.651520
838.410583	1299.322388	2355.164063	1799.937012	47.413795
838.713379	1287.944824	2245.938965	1738.497925	47.030884
839.016052	1231.056763	2220.908203	1809.039063	58.390812
839.318787	1294.771362	2041.142212	1788.559326	66.158531
839.621338	1269.740601	2084.376953	1727.120239	56.145252
839.923889	1258.363037	2068.448486	1636.099487	46.629211
840.226440	1249.260864	2123.060791	1688.436401	50.260422
840.528931	1226.505737	2093.479248	1615.619751	44.881882
840.831299	1196.923950	2191.326416	1879.580200	68.649895
841.133606	1278.842651	2311.929199	1831.794189	53.524223
841.435913	1251.536499	2318.755615	1804.488037	51.812370
841.738220	1303.873413	2341.510986	1813.590088	49.122803
842.040405	1249.260864	2154.918213	1665.681274	45.979908
842.342529	1338.006226	2143.540527	1756.702026	51.977402
842.644592	1324.353149	2057.070801	1749.875488	58.074532
842.946594	1258.363037	2034.315552	1708.916138	58.064518
843.248596	1251.536499	2027.489014	1615.619751	46.920815
843.550598	1276.567139	1986.529663	1656.579102	53.525639
843.852478	1258.363037	1918.264038	1576.935913	48.275860
844.154236	1303.873413	1904.610962	1570.109375	44.318184
844.455994	1251.536499	1893.233276	1590.588989	52.836868
844.757690	1294.771362	1843.171875	1595.140137	54.771790
845.059326	1378.965576	1827.243164	1576.935913	44.162445
845.360962	1322.077637	1868.202637	1506.394775	33.749992
845.662476	1312.975464	1752.151001	1572.384888	59.067368
845.963989	1274.291626	1758.977539	1586.037964	64.319252
846.265381	1233.332275	1811.314575	1595.140137	62.598434
846.566772	1292.495850	1859.100464	1517.772339	39.759029
846.868042	1176.444214	1840.896362	1554.180664	56.849308
847.169373	1240.158813	1845.447388	1601.966675	59.774441
847.470581	1265.189575	1840.896362	1492.741699	39.525696
847.771729	1276.567139	1856.824951	1426.751587	25.882366
848.072815	1272.016113	1754.426514	1506.394775	48.584911
848.373901	1281.118164	1733.946899	1556.456177	60.804005
848.674866	1301.597900	1761.253052	1499.568237	43.069317
848.975891	1256.087524	1633.823975	1481.364014	59.638535
849.276794	1287.944824	1706.640625	1449.506714	38.586937
849.577637	1274.291626	1770.355225	1454.057739	36.238522
849.878357	1317.526489	1756.702026	1538.252075	50.259079
850.179077	1365.312500	1809.039063	1499.568237	30.256413
850.479736	1231.056763	1779.457275	1517.772339	52.282150
850.780396	1274.291626	1706.640625	1492.741699	50.526329
851.080994	1260.638550	1708.916138	1506.394775	54.822330
851.381470	1244.709839	1727.120239	1513.221313	55.660381
851.681946	1285.669312	1788.559326	1547.354126	52.036194
851.982361	1297.046875	1631.548462	1454.057739	46.938751
852.282715	1301.597900	1688.436401	1440.404663	35.882355
852.583008	1235.607788	1756.702026	1458.608887	42.794773
852.883240	1267.465088	1720.293701	1435.853638	37.185936
853.183411	1242.434326	1608.793213	1458.608887	59.006229
853.483521	1324.353149	1713.467163	1476.812988	39.181278
853.783630	1249.260864	1718.018188	1349.383789	21.359224
854.083679	1290.220337	1663.405762	1472.261963	48.780476
854.383667	1281.118164	1711.191650	1483.639526	47.089943
854.683533	1260.638550	1674.783325	1444.955688	44.505486
854.983337	1278.842651	1702.089600	1476.812988	46.774193
855.283203	1256.087524	1749.875488	1508.670288	51.152069
855.582886	1287.944824	1633.823975	1449.506714	46.710503
855.882629	1312.975464	1620.170776	1440.404663	41.481491
856.182312	1315.250977	1706.640625	1431.302612	29.651176
856.481873	1249.260864	1649.752563	1485.915039	59.090908
856.781372	1331.179688	1640.650513	1408.547363	24.999990
857.080872	1349.383789	1665.681274	1435.853638	27.338140
857.380310	1306.148926	1654.303589	1472.261963	47.712425
857.679688	1253.812012	1702.089600	1429.027100	39.086292
857.979004	1260.638550	1713.467163	1490.466064	50.753754
858.278259	1258.363037	1745.324463	1469.986450	43.457943
858.577454	1256.087524	1620.170776	1463.159912	56.875011
858.876648	1338.006226	1679.334351	1444.955688	31.333328
859.175720	1292.495850	1749.875488	1408.547363	25.373127
859.474792	1251.536499	1672.507813	1403.996338	36.216206
859.773743	1217.403687	1724.844727	1444.955688	44.843044
860.072693	1276.567139	1647.477051	1442.680176	44.785278
860.371521	1308.424438	1652.028076	1538.252075	66.887428
860.670349	1244.709839	1654.303589	1465.435425	53.888905
860.969116	1317.526489	1686.160889	1410.822876	25.308649
861.267883	1272.016113	1554.180664	1485.915039	75.806450
861.566589	1269.740601	1706.640625	1454.057739	42.187485
861.865112	1297.046875	1656.579102	1476.812988	50.000000
862.163635	1294.771362	1642.926025	1460.884399	47.712425
862.462158	1315.250977	1649.752563	1465.435425	44.897976
862.760620	1249.260864	1670.232300	1424.476074	41.621639
863.059021	1285.669312	1597.415649	1472.261963	59.854000
863.357361	1262.914063	1688.436401	1463.159912	47.058834
863.655640	1301.597900	1677.058838	1449.506714	39.393929
863.953857	1260.638550	1549.629639	1365.312500	36.220478
864.251953	1212.852539	1661.130127	1497.292725	63.451797
864.550110	1221.954712	1617.895264	1451.782227	58.045963
864.848206	1310.699951	1613.344238	1451.782227	46.616535
865.146179	1281.118164	1626.997314	1392.618774	32.236870
865.444092	1278.842651	1686.160889	1390.343262	27.374323
865.741943	1251.536499	1633.823975	1449.506714	51.785690
866.039795	1276.567139	1729.395752	1476.812988	44.221111
866.337646	1226.505737	1647.477051	1413.098389	44.324314
866.635376	1253.812012	1677.058838	1463.159912	49.462368
866.933044	1233.332275	1695.262939	1465.435425	50.246319
867.230652	1285.669312	1622.446289	1406.271851	35.810802
867.528198	1283.393677	1688.436401	1419.924927	33.707863
867.825745	1262.914063	1599.691162	1454.057739	56.756733
868.123230	1287.944824	1638.375000	1442.680176	44.155830
868.420593	1274.291626	1640.650513	1465.435425	52.173923
868.717896	1276.567139	1658.854614	1497.292725	57.738117
869.015198	1265.189575	1649.752563	1419.924927	40.236671
869.312439	1285.669312	1620.170776	1401.720825	34.693874
869.609619	1306.148926	1631.548462	1513.221313	63.636349
869.906738	1249.260864	1718.018188	1481.364014	49.514565
870.203796	1233.332275	1758.977539	1513.221313	53.246754
870.500854	1267.465088	1640.650513	1429.027100	43.292690
870.797791	1297.046875	1611.068726	1447.231201	47.826077
871.094666	1251.536499	1633.823975	1399.445313	38.690468
871.391602	1301.597900	1652.028076	1397.169800	27.272738
871.688293	1294.771362	1681.609863	1442.680176	38.235287
871.985107	1224.230225	1686.160889	1401.720825	38.423645
872.281738	1301.597900	1681.609863	1524.598877	58.682621
872.578369	1340.281738	1652.028076	1545.078613	65.693436
872.874939	1342.557251	1665.681274	1472.261963	40.140846
873.171509	1240.158813	1606.517700	1485.915039	67.080734
873.467957	1290.220337	1674.783325	1504.119263	55.621300
873.764343	1344.832764	1597.415649	1522.323364	70.270241
874.060669	1235.607788	1613.344238	1447.231201	56.024090
874.356995	1322.077637	1692.987427	1474.537476	41.104290
874.653198	1240.158813	1711.191650	1520.047852	59.420280
874.949463	1267.465088	1636.099487	1447.231201	48.765419
875.245544	1221.954712	1620.170776	1454.057739	58.285702
875.541626	1246.985352	1688.436401	1426.751587	40.721668
875.837646	1201.474976	1667.956787	1442.680176	51.707310
876.133606	1312.975464	1692.987427	1449.506714	35.928146
876.429565	1338.006226	1649.752563	1488.190552	48.175171
876.725403	1269.740601	1633.823975	1390.343262	33.125011
877.021179	1294.771362	1667.956787	1429.027100	35.975613
877.316956	1244.709839	1615.619751	1454.057739	56.441711
877.612610	1301.597900	1681.609863	1460.884399	41.916180
877.908203	1208.301514	1647.477051	1390.343262	41.450794
878.203857	1217.403687	1642.926025	1406.271851	44.385017
878.499390	1294.771362	1695.262939	1447.231201	38.068176
878.794800	1347.108276	1667.956787	1497.292725	46.808521
879.090271	1235.607788	1649.752563	1499.568237	63.736275
879.385559	1272.016113	1736.222412	1508.670288	50.980389
879.680847	1192.372925	1715.742676	1515.496826	61.739124
879.976196	1285.669312	1708.916138	1561.007324	65.053772
880.271301	1278.842651	1845.447388	1460.884399	32.128525
880.566467	1265.189575	1838.620850	1524.598877	45.238079
880.861572	1215.128052	1847.722900	1599.691162	60.791374
881.156555	1322.077637	1975.152100	1611.068726	44.250862
881.451477	1283.393677	2227.734863	1745.324463	48.915665
881.746460	1226.505737	2509.899414	1929.641602	54.787231
882.041321	1326.628662	3169.800537	2334.684326	54.691353
882.336121	1274.291626	4039.049316	2748.829102	53.333332
882.630798	1283.393677	4569.245605	2990.034424	51.939064
882.925537	1246.985352	4821.828613	3242.617188	55.824318
883.220215	1306.148926	4651.164551	3024.167236	51.360546
883.514771	1215.128052	4309.836426	2871.707275	53.529411
883.809326	1299.322388	3973.059326	2712.420898	52.851070
884.103760	1285.669312	3643.108887	2582.716064	55.019302
884.398132	1260.638550	3552.087891	2450.735840	51.936447
884.692505	1226.505737	3192.555664	2334.684326	56.365742
884.986816	1278.842651	3067.402100	2273.245361	55.597969
885.281067	1312.975464	3065.126465	2191.326416	50.129868
885.575256	1251.536499	2826.196777	2104.856689	54.190750
885.869385	1328.904175	2562.236328	2022.937988	56.273067
886.163452	1301.597900	2380.194824	1879.580200	53.586494
886.457458	1253.812012	2211.806152	1845.447388	61.757725
886.751465	1281.118164	2179.948975	1679.334351	44.303799
887.045410	1283.393677	2032.040039	1674.783325	52.279644
887.339233	1240.158813	2082.101563	1640.650513	47.567570
887.632996	1221.954712	1975.152100	1652.028076	57.099689
887.926758	1297.046875	1927.366089	1595.140137	47.292427
888.220398	1274.291626	1802.212524	1499.568237	42.672417
888.514099	1269.740601	1784.008301	1372.139038	19.911505
888.807678	1294.771362	1774.906250	1449.506714	32.227474
889.101196	1299.322388	1768.079712	1549.629639	53.398045
889.394653	1324.353149	1715.742676	1469.986450	37.209301
889.688049	1251.536499	1588.313477	1501.843750	74.324333
889.981384	1272.016113	1736.222412	1463.159912	41.176476
890.274719	1310.699951	1622.446289	1424.476074	36.496380
890.567932	1256.087524	1679.334351	1388.067749	31.182802
>>>>>End Processed Spectral Data<<<<<
