Jaz Data File
++++++++++++++++++++++++++++++++++++
Date: Wed Feb 07 06:35:27 2024
User: jaz
Dark Spectrum Present: Yes
Reference Spectrum Present: Yes
Processed Spectrum Present: Yes
Spectrometers: JAZA3692
Integration Time (usec): 40000 (JAZA3692)
Spectra Averaged: 1 (JAZA3692)
Boxcar Smoothing: 0 (JAZA3692)
Correct for Electrical Dark: No (JAZA3692)
Strobe/Lamp Enabled: Yes (JAZA3692)
Correct for Detector Non-linearity: No (JAZA3692)
Correct for Stray Light: No (JAZA3692)
Number of Pixels in Processed Spectrum: 2048
>>>>>Begin Processed Spectral Data<<<<<
W	D	R	S	P
190.244385	0.000000	0.000000	0.000000	0.000000
190.627136	0.000000	0.000000	0.000000	0.000000
191.009842	1424.476074	1381.241089	1231.056763	447.367584
191.392532	1344.832764	1360.761475	1267.465088	-485.712097
191.775177	1369.863525	1378.965576	1306.148926	-700.002686
192.157791	1410.822876	1438.129150	1322.077637	-324.999451
192.540390	1367.588013	1419.924927	1342.557251	-47.826210
192.922943	1408.547363	1406.271851	1413.098389	-200.000000
193.305481	1335.730713	1406.271851	1342.557251	9.677386
193.687958	1381.241089	1431.302612	1319.802124	-122.726921
194.070419	1347.108276	1358.485962	1333.455200	-119.998711
194.452866	1447.231201	1442.680176	1287.944824	3500.010742
194.835251	1369.863525	1392.618774	1287.944824	-359.999146
195.217621	1367.588013	1344.832764	1297.046875	309.999420
195.599960	1438.129150	1388.067749	1322.077637	231.818344
195.982254	1456.333252	1442.680176	1388.067749	500.000885
196.364517	1490.466064	1365.312500	1308.424438	145.454605
196.746750	1449.506714	1429.027100	1408.547363	200.000595
197.128952	1390.343262	1353.934937	1335.730713	150.000168
197.511139	1444.955688	1456.333252	1328.904175	-1020.003235
197.893280	1374.414551	1372.139038	1322.077637	2300.005371
198.275391	1399.445313	1340.281738	1310.699951	150.000000
198.657471	1410.822876	1392.618774	1258.363037	837.502686
199.039520	1394.894287	1431.302612	1351.659302	-118.750275
199.421539	1403.996338	1419.924927	1244.709839	-1000.003845
199.803513	1435.853638	1440.404663	1310.699951	-2750.010742
200.185471	1406.271851	1381.241089	1310.699951	381.817780
200.567383	1385.792114	1429.027100	1392.618774	15.789667
200.949265	1456.333252	1431.302612	1358.485962	390.910065
201.331131	1392.618774	1449.506714	1381.241089	-20.000172
201.712967	1378.965576	1401.720825	1301.597900	-339.999237
202.094742	1442.680176	1435.853638	1322.077637	1766.671997
202.476517	1401.720825	1458.608887	1335.730713	-115.999931
202.858231	1408.547363	1378.965576	1333.455200	253.845932
203.239944	1415.373901	1392.618774	1353.934937	270.000549
203.621582	1376.690063	1472.261963	1340.281738	-38.095219
204.003235	1331.179688	1367.588013	1310.699951	-56.250145
204.384827	1328.904175	1444.955688	1317.526489	-9.803996
204.766388	1369.863525	1438.129150	1310.699951	-86.666718
205.147934	1351.659302	1447.231201	1322.077637	-30.952263
205.529449	1392.618774	1433.578125	1322.077637	-172.222305
205.910904	1444.955688	1460.884399	1281.118164	-1028.567383
206.292343	1360.761475	1476.812988	1276.567139	-72.549103
206.673767	1429.027100	1413.098389	1342.557251	542.855286
207.055115	1456.333252	1390.343262	1322.077637	203.448456
207.436462	1403.996338	1431.302612	1317.526489	-316.666595
207.817780	1431.302612	1390.343262	1331.179688	244.444611
208.199051	1358.485962	1463.159912	1385.792114	26.086864
208.580307	1424.476074	1422.200562	1292.495850	5800.021484
208.961517	1388.067749	1454.057739	1256.087524	-200.000366
209.342712	1440.404663	1431.302612	1265.189575	1925.006714
209.723846	1390.343262	1463.159912	1253.812012	-187.500046
210.104965	1403.996338	1388.067749	1335.730713	428.572968
210.486069	1426.751587	1447.231201	1333.455200	-455.557343
210.867111	1383.516602	1456.333252	1326.628662	-78.124908
211.248123	1385.792114	1390.343262	1231.056763	-3399.919434
211.629120	1385.792114	1424.476074	1276.567139	-282.352112
212.010071	1456.333252	1474.537476	1299.322388	-862.496887
212.390991	1406.271851	1378.965576	1299.322388	391.666260
212.771881	1349.383789	1397.169800	1283.393677	-138.095047
213.152756	1401.720825	1438.129150	1338.006226	-175.000076
213.533569	1392.618774	1417.649414	1319.802124	-290.910065
213.914368	1331.179688	1429.027100	1347.108276	16.279009
214.295135	1383.516602	1410.822876	1303.873413	-291.666260
214.675858	1433.578125	1458.608887	1267.465088	-663.635559
215.056549	1417.649414	1415.373901	1278.842651	6100.021484
215.437225	1365.312500	1431.302612	1463.159912	148.275864
215.817841	1458.608887	1413.098389	1258.363037	439.999237
216.198441	1360.761475	1392.618774	1367.588013	21.428490
216.579025	1356.210449	1378.965576	1221.954712	-590.002136
216.959549	1360.761475	1408.547363	1290.220337	-147.619186
217.340057	1413.098389	1442.680176	1317.526489	-323.076813
217.720535	1378.965576	1360.761475	1303.873413	412.501343
218.100967	1419.924927	1415.373901	1356.210449	1400.002686
218.481369	1340.281738	1435.853638	1374.414551	35.714275
218.861740	1401.720825	1458.608887	1347.108276	-96.000015
219.242065	1424.476074	1367.588013	1335.730713	155.999969
219.622391	1338.006226	1510.945801	1376.690063	22.368412
220.002670	1358.485962	1447.231201	1299.322388	-66.666756
220.382919	1338.006226	1365.312500	1292.495850	-166.666367
220.763123	1381.241089	1479.088501	1292.495850	-90.697586
221.143295	1378.965576	1358.485962	1297.046875	400.001190
221.523453	1363.036987	1399.445313	1308.424438	-150.000168
221.903549	1406.271851	1485.915039	1297.046875	-137.142899
222.283630	1312.975464	1469.986450	1338.006226	15.942045
222.663696	1401.720825	1435.853638	1344.832764	-166.666779
223.043701	1376.690063	1385.792114	1274.291626	-1125.004028
223.423676	1353.934937	1488.190552	1308.424438	-33.898396
223.803635	1381.241089	1472.261963	1301.597900	-87.499916
224.183548	1394.894287	1442.680176	1240.158813	-323.809967
224.563431	1438.129150	1431.302612	1331.179688	1566.671997
224.943283	1419.924927	1451.782227	1385.792114	-107.142830
225.323105	1388.067749	1372.139038	1340.281738	299.999237
225.702881	1442.680176	1449.506714	1285.669312	-2300.007080
226.082642	1326.628662	1465.435425	1306.148926	-14.754134
226.462357	1374.414551	1458.608887	1324.353149	-59.459347
226.842041	1303.873413	1451.782227	1253.812012	-33.846123
227.221695	1326.628662	1467.710938	1306.148926	-14.516166
227.601318	1388.067749	1417.649414	1347.108276	-138.462357
227.980911	1419.924927	1488.190552	1369.863525	-73.333252
228.360474	1397.169800	1510.945801	1365.312500	-28.000017
228.739990	1374.414551	1508.670288	1308.424438	-49.152546
229.119476	1372.139038	1504.119263	1315.250977	-43.103474
229.498932	1403.996338	1604.242188	1476.812988	36.363625
229.878372	1460.884399	1599.691162	1324.353149	-98.360664
230.257736	1358.485962	1702.089600	1365.312500	1.986748
230.637115	1465.435425	1679.334351	1319.802124	-68.085098
231.016449	1456.333252	1658.854614	1310.699951	-71.910095
231.395737	1363.036987	1599.691162	1369.863525	2.884605
231.774994	1419.924927	1561.007324	1299.322388	-85.483757
232.154221	1449.506714	1608.793213	1328.904175	-75.714226
232.533417	1406.271851	1583.762451	1281.118164	-70.512856
232.912582	1401.720825	1567.833862	1353.934937	-28.767092
233.291702	1338.006226	1581.486938	1385.792114	19.626150
233.670792	1374.414551	1611.068726	1369.863525	-1.923070
234.049866	1419.924927	1615.619751	1319.802124	-51.162724
234.428894	1413.098389	1604.242188	1381.241089	-16.666666
234.807892	1351.659302	1495.017212	1292.495850	-41.269753
235.186874	1285.669312	1524.598877	1301.597900	6.666646
235.565781	1460.884399	1601.966675	1306.148926	-109.677475
235.944687	1383.516602	1601.966675	1340.281738	-19.791645
236.323547	1397.169800	1622.446289	1342.557251	-24.242455
236.702377	1383.516602	1665.681274	1331.179688	-18.548359
237.081177	1381.241089	1581.486938	1328.904175	-26.136330
237.459946	1372.139038	1706.640625	1351.659302	-6.122463
237.838669	1422.200562	1615.619751	1297.046875	-64.705933
238.217361	1381.241089	1608.793213	1308.424438	-31.999987
238.596039	1363.036987	1670.232300	1303.873413	-19.259270
238.974670	1385.792114	1622.446289	1258.363037	-53.846115
239.353271	1344.832764	1674.783325	1281.118164	-19.310347
239.731842	1347.108276	1611.068726	1312.975464	-12.931033
240.110367	1383.516602	1704.365112	1358.485962	-7.801389
240.488876	1356.210449	1722.569214	1297.046875	-16.149080
240.867340	1458.608887	1806.763550	1301.597900	-45.098057
241.245789	1401.720825	1818.141113	1299.322388	-24.590166
241.624176	1456.333252	1804.488037	1338.006226	-33.986900
242.002548	1394.894287	1904.610962	1267.465088	-25.000006
242.380890	1415.373901	1902.335449	1392.618774	-4.672880
242.759186	1356.210449	1943.294800	1415.373901	10.077504
243.137451	1356.210449	2029.764526	1349.383789	-1.013528
243.515686	1331.179688	2123.060791	1324.353149	-0.862066
243.893890	1310.699951	2204.979736	1374.414551	7.124683
244.272049	1495.017212	2209.530762	1322.077637	-24.203821
244.650192	1447.231201	2054.795166	1319.802124	-20.973772
245.028290	1426.751587	2029.764526	1422.200562	-0.754714
245.406357	1403.996338	1925.090576	1358.485962	-8.733617
245.784393	1394.894287	1904.610962	1381.241089	-2.678586
246.162384	1388.067749	1925.090576	1285.669312	-19.067801
246.540359	1385.792114	2029.764526	1367.588013	-2.826845
246.918289	1403.996338	2134.438477	1358.485962	-6.230525
247.296204	1378.965576	2218.632813	1378.965576	0.000000
247.674057	1394.894287	2473.491211	1419.924927	2.320667
248.051895	1383.516602	2769.308838	1390.343262	0.492618
248.429703	1376.690063	2805.717041	1374.414551	-0.159235
248.807465	1315.250977	2810.268311	1383.516602	4.566210
249.185196	1392.618774	2582.716064	1458.608887	5.544934
249.562897	1340.281738	2416.603027	1353.934937	1.268506
249.940567	1367.588013	2341.510986	1365.312500	-0.233644
250.318192	1419.924927	2214.081787	1358.485962	-7.736376
250.695801	1399.445313	2157.193604	1390.343262	-1.201197
251.073349	1449.506714	2066.172852	1390.343262	-9.594082
251.450882	1392.618774	1972.876587	1360.761475	-5.490198
251.828400	1406.271851	2020.662476	1335.730713	-11.481481
252.205872	1358.485962	2107.132324	1335.730713	-3.039519
252.583313	1378.965576	2118.509766	1394.894287	2.153855
252.960693	1381.241089	2164.020264	1328.904175	-6.686038
253.338074	1374.414551	2234.561523	1326.628662	-5.555549
253.715408	1415.373901	2216.357178	1383.516602	-3.977274
254.092682	1360.761475	2091.203613	1360.761475	0.000000
254.469955	1390.343262	2093.479248	1397.169800	0.970870
254.847198	1369.863525	2000.182739	1340.281738	-4.693144
255.224365	1422.200562	1991.080688	1372.139038	-8.800013
255.601563	1408.547363	1950.121338	1303.873413	-19.327728
255.978683	1413.098389	2047.968750	1297.046875	-18.279560
256.355743	1424.476074	1961.498901	1290.220337	-25.000006
256.732819	1390.343262	2043.417725	1310.699951	-12.195135
257.109894	1349.383789	2043.417725	1403.996338	7.868858
257.486877	1415.373901	2004.733887	1351.659302	-10.810812
257.863831	1426.751587	2009.284912	1349.383789	-13.281265
258.240753	1422.200562	2150.367188	1385.792114	-5.000016
258.617645	1374.414551	2273.245361	1372.139038	-0.253164
258.994507	1444.955688	2316.480225	1360.761475	-9.660567
259.371307	1349.383789	2423.429688	1319.802124	-2.754227
259.748108	1372.139038	2491.695313	1419.924927	4.268288
260.124878	1394.894287	2764.757813	1394.894287	0.000000
260.501617	1347.108276	3053.749023	1342.557251	-0.266666
260.878296	1390.343262	3258.545898	1403.996338	0.730813
261.254944	1394.894287	3358.668701	1385.792114	-0.463504
261.631561	1415.373901	3358.668701	1399.445313	-0.819669
262.008179	1372.139038	2833.023438	1376.690063	0.311525
262.384735	1388.067749	2760.206787	1397.169800	0.663348
262.761261	1422.200562	2512.175049	1344.832764	-7.098129
263.137695	1406.271851	2389.296875	1319.802124	-8.796289
263.514191	1369.863525	2512.175049	1351.659302	-1.593630
263.890594	1390.343262	2446.184814	1408.547363	1.724132
264.267029	1397.169800	2352.888428	1301.597900	-10.000004
264.643341	1306.148926	2468.940186	1326.628662	1.761256
265.019653	1331.179688	2371.092773	1342.557251	1.094088
265.395935	1397.169800	2255.041016	1383.516602	-1.591521
265.772217	1392.618774	2248.214600	1392.618774	0.000000
266.148407	1410.822876	2357.439453	1360.761475	-5.288456
266.524597	1378.965576	2423.429688	1285.669312	-8.932453
266.900726	1347.108276	2375.643799	1349.383789	0.221238
267.276855	1326.628662	2600.920166	1408.547363	6.428568
267.652924	1340.281738	2646.430664	1394.894287	4.181189
268.028992	1376.690063	2755.655762	1356.210449	-1.485143
268.404999	1403.996338	2691.941162	1351.659302	-4.063609
268.781006	1417.649414	2673.737061	1374.414551	-3.442026
269.156921	1381.241089	2594.093750	1376.690063	-0.375233
269.532837	1383.516602	2657.808350	1372.139038	-0.892854
269.908661	1338.006226	2671.461426	1306.148926	-2.389079
270.284546	1290.220337	2589.542725	1326.628662	2.802101
270.660339	1410.822876	2534.930176	1358.485962	-4.655865
271.036133	1303.873413	2685.114502	1344.832764	2.965402
271.411835	1347.108276	2833.023438	1342.557251	-0.306278
271.787537	1351.659302	2939.972900	1401.720825	3.151866
272.163239	1444.955688	3160.698486	1383.516602	-3.580903
272.538849	1401.720825	3340.464600	1401.720825	0.000000
272.914459	1340.281738	3217.586426	1447.231201	5.696969
273.290070	1344.832764	3206.208740	1394.894287	2.689490
273.665588	1338.006226	3024.167236	1431.302612	5.533065
274.041046	1390.343262	3005.962891	1399.445313	0.563378
274.416565	1392.618774	3049.197754	1394.894287	0.137362
274.791962	1419.924927	3021.891602	1399.445313	-1.278404
275.167389	1351.659302	2812.543701	1317.526489	-2.336449
275.542755	1426.751587	2789.788574	1308.424438	-8.681140
275.918060	1467.710938	2835.298828	1297.046875	-12.479202
276.293365	1472.261963	2862.605225	1408.547363	-4.582653
276.668640	1419.924927	2899.013428	1381.241089	-2.615384
277.043854	1326.628662	2978.656738	1435.853638	6.611569
277.419037	1365.312500	3010.513916	1331.179688	-2.074689
277.794189	1306.148926	3030.993652	1276.567139	-1.715041
278.169312	1417.649414	3012.789551	1381.241089	-2.282453
278.544373	1408.547363	3040.095703	1413.098389	0.278939
278.919464	1353.934937	2967.279053	1413.098389	3.667132
279.294464	1344.832764	2942.248291	1413.098389	4.273505
279.669464	1360.761475	2951.350586	1331.179688	-1.859801
280.044403	1340.281738	2942.248291	1456.333252	7.244316
280.419312	1312.975464	3003.687500	1394.894287	4.845226
280.794189	1435.853638	3099.259277	1469.986450	2.051984
281.169037	1344.832764	3028.718262	1390.343262	2.702707
281.543854	1438.129150	3203.933350	1372.139038	-3.737114
281.918671	1413.098389	3176.626953	1388.067749	-1.419350
282.293365	1417.649414	3338.188965	1481.364014	3.317536
282.668091	1376.690063	3511.128662	1458.608887	3.837957
283.042786	1399.445313	3572.567627	1385.792114	-0.628276
283.417419	1301.597900	3508.853027	1465.435425	7.422682
283.792053	1381.241089	3545.261475	1465.435425	3.890644
284.166595	1394.894287	3297.229736	1444.955688	2.631576
284.541138	1360.761475	3399.628174	1440.404663	3.906248
284.915619	1431.302612	3244.892578	1385.792114	-2.509415
285.290100	1335.730713	3456.516113	1388.067749	2.467814
285.664520	1431.302612	3490.648926	1406.271851	-1.215471
286.038940	1408.547363	3540.710449	1447.231201	1.814300
286.413300	1356.210449	3765.986816	1444.955688	3.682717
286.787628	1394.894287	3884.313965	1433.578125	1.553930
287.161896	1333.455200	3868.385254	1460.884399	5.026931
287.536194	1344.832764	3836.528076	1440.404663	3.835617
287.910400	1308.424438	3754.609375	1435.853638	5.209303
288.284607	1372.139038	3606.700439	1378.965576	0.305498
288.658752	1385.792114	3497.475586	1383.516602	-0.107758
289.032867	1378.965576	3376.872803	1431.302612	2.619593
289.406921	1342.557251	3486.097900	1424.476074	3.821660
289.781006	1415.373901	3481.546875	1390.343262	-1.211450
290.154999	1454.057739	3549.812500	1429.027100	-1.194350
290.529022	1422.200562	3620.353516	1392.618774	-1.345757
290.902954	1438.129150	3756.884766	1469.986450	1.373896
291.276825	1317.526489	3884.313965	1451.782227	5.230496
291.650757	1363.036987	3973.059326	1458.608887	3.661727
292.024597	1403.996338	3913.895752	1417.649414	0.543969
292.398407	1397.169800	3831.977051	1415.373901	0.747661
292.772156	1399.445313	3802.395264	1442.680176	1.799241
293.145905	1388.067749	3561.189941	1476.812988	4.083767
293.519592	1349.383789	3577.118652	1474.537476	5.617980
293.893280	1406.271851	3611.251465	1467.710938	2.786379
294.266907	1397.169800	3763.711426	1358.485962	-1.634615
294.640533	1410.822876	3759.160400	1444.955688	1.453488
295.014069	1344.832764	3957.130615	1463.159912	4.529619
295.387604	1454.057739	4148.274414	1485.915039	1.182433
295.761078	1392.618774	4173.305176	1438.129150	1.636660
296.134552	1467.710938	4098.212891	1535.976563	2.595156
296.507996	1333.455200	4123.243652	1529.150024	7.014683
296.881378	1408.547363	4114.141602	1463.159912	2.018505
297.254730	1403.996338	4398.581543	1451.782227	1.595743
297.628021	1403.996338	4603.378418	1501.843750	3.058322
298.001282	1367.588013	4808.175293	1460.884399	2.711641
298.374573	1390.343262	4683.021973	1499.568237	3.317207
298.747803	1458.608887	4566.970215	1485.915039	0.878474
299.121002	1383.516602	4371.275391	1504.119263	4.036560
299.494141	1376.690063	4202.886719	1456.333252	2.818034
299.867188	1385.792114	4150.549805	1465.435425	2.880661
300.240265	1417.649414	4014.018799	1456.333252	1.489920
300.613312	1331.179688	3847.905762	1449.506714	4.701625
300.986328	1322.077637	3847.905762	1463.159912	5.585585
301.359314	1372.139038	3841.079102	1485.915039	4.608294
301.732239	1422.200562	3804.670898	1360.761475	-2.578798
302.105103	1378.965576	3895.691650	1479.088501	3.978301
302.477997	1365.312500	3879.762939	1447.231201	3.257917
302.850830	1438.129150	3998.090088	1415.373901	-0.888891
303.223602	1422.200562	3809.221924	1433.578125	0.476643
303.596375	1319.802124	3804.670898	1501.843750	7.326006
303.969116	1438.129150	3643.108887	1415.373901	-1.031994
304.341766	1417.649414	3606.700439	1483.639526	3.014553
304.714478	1383.516602	3722.751953	1369.863525	-0.583656
305.087067	1378.965576	3645.384277	1463.159912	3.714862
305.459656	1383.516602	3752.333740	1403.996338	0.864555
305.832214	1347.108276	3581.669678	1429.027100	3.665991
306.204681	1335.730713	3604.425049	1490.466064	6.820458
306.577148	1358.485962	3663.588379	1394.894287	1.579467
306.949646	1335.730713	3711.374512	1408.547363	3.065133
307.322021	1419.924927	3709.098877	1392.618774	-1.192839
307.694397	1424.476074	3597.598389	1463.159912	1.780104
308.066742	1365.312500	3750.058350	1408.547363	1.812976
308.439026	1356.210449	3775.089111	1447.231201	3.762932
308.811279	1374.414551	3841.079102	1426.751587	2.121773
309.183502	1356.210449	4041.324951	1442.680176	3.220337
309.555695	1460.884399	3975.334961	1476.812988	0.633482
309.927887	1335.730713	4014.018799	1501.843750	6.202209
310.299988	1381.241089	4125.519043	1431.302612	1.824215
310.672058	1440.404663	4164.203125	1481.364014	1.503759
311.044128	1308.424438	4136.896973	1458.608887	5.309737
311.416168	1399.445313	4161.927734	1488.190552	3.212518
311.788147	1392.618774	4209.713379	1449.506714	2.019383
312.160065	1410.822876	4166.478516	1463.159912	1.899259
312.531982	1312.975464	4093.661865	1433.578125	4.337154
312.903870	1338.006226	4011.743164	1483.639526	5.446808
313.275696	1431.302612	3825.150391	1424.476074	-0.285170
313.647491	1438.129150	3875.211914	1424.476074	-0.560222
314.019318	1419.924927	3984.437012	1413.098389	-0.266192
314.391022	1388.067749	3850.181152	1467.710938	3.234749
314.762726	1342.557251	4050.427002	1433.578125	3.361346
315.134369	1347.108276	4061.804688	1381.241089	1.257334
315.505981	1308.424438	4105.039551	1458.608887	5.370222
315.877594	1415.373901	4148.274414	1399.445313	-0.582846
316.249146	1351.659302	4136.896973	1469.986450	4.248368
316.620636	1435.853638	3959.406250	1435.853638	0.000000
316.992157	1340.281738	3886.589600	1353.934937	0.536196
317.363586	1292.495850	3756.884766	1429.027100	5.540166
317.735016	1399.445313	3786.466553	1424.476074	1.048619
318.106354	1378.965576	3704.547852	1460.884399	3.522508
318.477722	1415.373901	3695.445801	1433.578125	0.798406
318.849060	1381.241089	3877.487549	1408.547363	1.093893
319.220306	1417.649414	3866.109863	1369.863525	-1.951671
319.591522	1358.485962	3929.824463	1392.618774	1.327434
319.962738	1492.741699	3909.344727	1410.822876	-3.389834
320.333923	1372.139038	3941.202148	1390.343262	0.708594
320.705017	1390.343262	3902.518066	1504.119263	4.528984
321.076111	1369.863525	3904.793701	1365.312500	-0.179533
321.447144	1369.863525	3734.129639	1460.884399	3.849857
321.818176	1331.179688	3674.966064	1467.710938	5.825243
322.189178	1376.690063	3661.312988	1435.853638	2.589643
322.560120	1344.832764	3645.384277	1351.659302	0.296735
322.931030	1265.189575	3857.007813	1463.159912	7.638280
323.301910	1310.699951	3913.895752	1351.659302	1.573426
323.672729	1401.720825	4177.855957	1458.608887	2.049182
324.043549	1358.485962	4207.437988	1415.373901	1.996802
324.414337	1376.690063	4516.908691	1458.608887	2.608698
324.785095	1342.557251	4671.644043	1435.853638	2.802462
325.155792	1353.934937	4437.265625	1374.414551	0.664204
325.526428	1403.996338	4557.868164	1454.057739	1.587300
325.897034	1394.894287	4353.071289	1460.884399	2.230770
326.267670	1381.241089	4480.500488	1465.435425	2.716595
326.638184	1385.792114	4430.438965	1363.036987	-0.747381
327.008728	1353.934937	4421.336914	1397.169800	1.409495
327.379211	1403.996338	4564.694824	1417.649414	0.431964
327.749634	1356.210449	4384.928711	1440.404663	2.779863
328.120026	1424.476074	4307.561035	1408.547363	-0.552488
328.490417	1338.006226	4189.233887	1419.924927	2.873103
328.860748	1410.822876	4159.651855	1394.894287	-0.579468
329.231079	1417.649414	4084.559814	1444.955688	1.023892
329.601318	1335.730713	4020.845215	1440.404663	3.898305
329.971558	1381.241089	4200.611328	1422.200562	1.452788
330.341736	1385.792114	4105.039551	1399.445313	0.502095
330.711914	1363.036987	4282.530273	1415.373901	1.792671
331.082062	1429.027100	4296.183105	1426.751587	-0.079365
331.452148	1385.792114	4243.846191	1410.822876	0.875797
331.822174	1381.241089	4150.549805	1422.200562	1.479051
332.192200	1385.792114	4357.622559	1342.557251	-1.454823
332.562134	1397.169800	4419.061523	1467.710938	2.334337
332.932129	1410.822876	4346.244629	1394.894287	-0.542634
333.302063	1347.108276	4500.979980	1390.343262	1.370854
333.671906	1401.720825	4635.235840	1408.547363	0.211118
334.041718	1358.485962	4626.133789	1388.067749	0.905293
334.411499	1390.343262	4708.052734	1378.965576	-0.342938
334.781281	1390.343262	4662.541992	1440.404663	1.529901
335.151001	1360.761475	4719.430176	1529.150024	5.013550
335.520721	1360.761475	4662.541992	1413.098389	1.585112
335.890350	1381.241089	4537.388672	1394.894287	0.432591
336.259979	1322.077637	4642.062500	1426.751587	3.152844
336.629547	1324.353149	4617.031738	1372.139038	1.451277
336.999084	1349.383789	4553.316895	1417.649414	2.130682
337.368622	1367.588013	4562.419434	1458.608887	2.849004
337.738098	1392.618774	4712.603516	1467.710938	2.261822
338.107513	1415.373901	4607.929688	1483.639526	2.138275
338.476898	1424.476074	4664.817871	1397.169800	-0.842697
338.846252	1447.231201	4607.929688	1372.139038	-2.375809
339.215576	1397.169800	4710.328125	1394.894287	-0.068681
339.584869	1376.690063	4671.644043	1429.027100	1.588400
339.954132	1444.955688	4701.226074	1385.792114	-1.816912
340.323334	1474.537476	4612.480469	1444.955688	-0.942713
340.692505	1403.996338	4455.469727	1363.036987	-1.342281
341.061646	1385.792114	4464.571777	1328.904175	-1.847743
341.430786	1358.485962	4537.388672	1397.169800	1.216893
341.799896	1369.863525	4548.766113	1378.965576	0.286327
342.168915	1344.832764	4623.858398	1444.955688	3.053435
342.537903	1431.302612	4796.797852	1442.680176	0.338065
342.906830	1374.414551	4958.359863	1456.333252	2.285713
343.275757	1401.720825	4910.573730	1431.302612	0.843061
343.644684	1372.139038	4826.379395	1472.261963	2.898551
344.013550	1365.312500	5001.594727	1449.506714	2.315393
344.382355	1367.588013	5238.249023	1454.057739	2.233978
344.751129	1385.792114	5276.932617	1472.261963	2.222224
345.119873	1426.751587	5486.280762	1481.364014	1.345290
345.488586	1392.618774	5670.597656	1463.159912	1.648936
345.857269	1360.761475	5854.915039	1501.843750	3.139240
346.225891	1403.996338	6025.579102	1492.741699	1.920237
346.594482	1392.618774	5959.588867	1469.986450	1.694070
346.963043	1419.924927	5879.945801	1508.670288	1.989797
347.331543	1426.751587	5604.607910	1429.027100	0.054466
347.700043	1397.169800	5415.739746	1454.057739	1.415627
348.068512	1378.965576	5217.769043	1424.476074	1.185539
348.436951	1419.924927	5190.462891	1444.955688	0.663851
348.805328	1406.271851	5115.370605	1435.853638	0.797547
349.173645	1358.485962	5129.023926	1444.955688	2.293299
349.541931	1454.057739	5106.268555	1431.302612	-0.623051
349.910217	1374.414551	5283.759277	1422.200562	1.222353
350.278473	1381.241089	5361.126953	1454.057739	1.829617
350.646667	1392.618774	5497.658203	1501.843750	2.660753
351.014801	1413.098389	5424.841797	1467.710938	1.361317
351.382935	1392.618774	5422.565918	1415.373901	0.564651
351.751007	1312.975464	5563.648438	1408.547363	2.248395
352.119049	1365.312500	5436.219238	1424.476074	1.453327
352.487091	1324.353149	5465.800781	1513.221313	4.560438
352.855072	1369.863525	5618.260742	1479.088501	2.570969
353.222992	1381.241089	5552.270996	1429.027100	1.145665
353.590881	1326.628662	5707.006348	1383.516602	1.298699
353.958740	1422.200562	5779.822754	1433.578125	0.261096
354.326599	1340.281738	6116.600098	1449.506714	2.286803
354.694397	1408.547363	6084.742676	1474.537476	1.411192
355.062134	1397.169800	6282.712891	1472.261963	1.537028
355.429840	1378.965576	6284.988281	1485.915039	2.179963
355.797516	1358.485962	6335.049805	1483.639526	2.514859
356.165192	1319.802124	6635.418457	1467.710938	2.782534
356.532776	1385.792114	6794.705078	1535.976563	2.776610
356.900360	1472.261963	6924.409668	1551.905151	1.460767
357.267883	1388.067749	7033.634766	1542.803101	2.740829
357.635376	1449.506714	7393.166992	1554.180664	1.761103
358.002808	1322.077637	7848.271484	1522.323364	3.068339
358.370270	1440.404663	8116.782715	1599.691162	2.385822
358.737640	1328.904175	7977.976074	1592.864502	3.969882
359.105011	1356.210449	7968.874023	1517.772339	2.443220
359.472321	1290.220337	7520.596191	1535.976563	3.944485
359.839569	1374.414551	7290.768555	1535.976563	2.730770
360.206787	1367.588013	7361.309570	1576.935913	3.492786
360.574005	1392.618774	7616.167969	1497.292725	1.681901
360.941193	1353.934937	7943.843262	1513.221313	2.417126
361.308319	1408.547363	8519.549805	1652.028076	3.424000
361.675415	1374.414551	9079.328125	1640.650513	3.455405
362.042450	1449.506714	9639.106445	1595.140137	1.778273
362.409424	1353.934937	10053.250977	1611.068726	2.955793
362.776428	1433.578125	10248.945313	1595.140137	1.832731
363.143402	1360.761475	9905.341797	1622.446289	3.062582
363.510284	1433.578125	9184.001953	1608.793213	2.260716
363.877136	1322.077637	8508.171875	1631.548462	4.306523
364.243988	1385.792114	7818.689453	1579.211426	3.006721
364.610779	1390.343262	7638.923340	1633.823975	3.896577
364.977539	1440.404663	7454.605957	1522.323364	1.362088
365.344269	1438.129150	7217.952148	1561.007324	2.125985
365.710938	1381.241089	7327.176758	1508.670288	2.143131
366.077576	1287.944824	7054.114258	1458.608887	2.959748
366.444183	1358.485962	6903.930176	1501.843750	2.585145
366.810760	1374.414551	6851.593262	1574.660400	3.656003
367.177277	1460.884399	7072.318848	1583.762451	2.189780
367.543823	1424.476074	7026.808105	1583.762451	2.843215
367.910248	1265.189575	6990.399902	1529.150024	4.610493
368.276642	1310.699951	6851.593262	1576.935913	4.804928
368.643036	1294.771362	6844.766602	1572.384888	5.002050
369.009399	1397.169800	6535.295898	1524.598877	2.480069
369.375671	1351.659302	6521.642578	1535.976563	3.565142
369.741974	1394.894287	6482.958984	1524.598877	2.549193
370.108215	1399.445313	6505.713867	1540.527588	2.762923
370.474396	1383.516602	6467.030273	1538.252075	3.043869
370.840546	1328.904175	6646.796387	1574.660400	4.621309
371.206665	1333.455200	6787.878418	1540.527588	3.796412
371.572784	1385.792114	6835.664551	1572.384888	3.423801
371.938843	1442.680176	7013.155273	1508.670288	1.184641
372.304840	1392.618774	7040.461426	1542.803101	2.659145
372.670807	1347.108276	7097.349609	1485.915039	2.413929
373.036713	1306.148926	6990.399902	1495.017212	3.322659
373.402649	1394.894287	6819.735840	1524.598877	2.390938
373.768524	1424.476074	6958.542480	1570.109375	2.631578
374.134308	1447.231201	6822.011230	1522.323364	1.397121
374.500122	1360.761475	6999.501953	1561.007324	3.551252
374.865875	1349.383789	7145.135254	1565.558350	3.729880
375.231567	1417.649414	7010.879395	1638.375000	3.946299
375.597260	1415.373901	7256.635742	1665.681274	4.285160
375.962891	1383.516602	7211.125488	1588.313477	3.514252
376.328461	1394.894287	7511.494141	1538.252075	2.343750
376.694031	1401.720825	7714.015625	1567.833862	2.631579
377.059540	1413.098389	7946.118652	1588.313477	2.681992
377.425049	1435.853638	8241.936523	1606.517700	2.507523
377.790497	1429.027100	8437.630859	1708.916138	3.993506
378.155945	1403.996338	8769.857422	1695.262939	3.954278
378.521301	1290.220337	8772.132813	1695.262939	5.413624
378.886597	1326.628662	8592.366211	1613.344238	3.946132
379.251892	1369.863525	8096.303223	1652.028076	4.194858
379.617157	1374.414551	7873.301758	1713.467163	5.217087
379.982422	1358.485962	7650.300781	1595.140137	3.761302
380.347595	1301.597900	7465.983887	1652.028076	5.684754
380.712738	1363.036987	7336.279297	1699.814087	5.638095
381.077820	1406.271851	7568.382324	1720.293701	5.096012
381.442902	1385.792114	7347.656738	1686.160889	5.038168
381.807953	1388.067749	7575.208984	1747.599976	5.810959
382.172974	1449.506714	7611.617188	1686.160889	3.840473
382.537933	1356.210449	7618.443848	1652.028076	4.723836
382.902832	1342.557251	7440.953125	1642.926025	4.925374
383.267700	1347.108276	7745.873047	1688.436401	5.334281
383.632538	1392.618774	7800.485352	1706.640625	4.900568
383.997345	1349.383789	7971.149414	1754.426514	6.116839
384.362152	1317.526489	8132.711426	1749.875488	6.343907
384.726898	1413.098389	8194.150391	1704.365112	4.295303
385.091553	1422.200562	8403.498047	1692.987427	3.878747
385.456238	1374.414551	8237.385742	1738.497925	5.305040
385.820862	1378.965576	8055.343750	1779.457275	5.998637
386.185425	1347.108276	8360.263672	1790.834839	6.327060
386.549988	1360.761475	8328.406250	1865.927002	7.250162
386.914490	1388.067749	8373.916992	1747.599976	5.146579
387.278961	1308.424438	8385.293945	1875.029175	8.006432
387.643372	1422.200562	8483.141602	1838.620850	5.897518
388.007782	1365.312500	8580.989258	1843.171875	6.622516
388.372101	1324.353149	8551.407227	1777.181763	6.265743
388.736450	1390.343262	8460.386719	1827.243164	6.179593
389.100739	1417.649414	8464.937500	1859.100464	6.264127
389.464966	1378.965576	8398.947266	1890.957764	7.293355
389.829163	1344.832764	8328.406250	1966.049927	8.895406
390.193329	1472.261963	8537.753906	1947.845825	6.731079
390.557495	1413.098389	8408.049805	1961.498901	7.839948
390.921570	1397.169800	8676.560547	1947.845825	7.564864
391.285614	1408.547363	8626.499023	1895.508789	6.746532
391.649597	1440.404663	9407.002930	2002.458252	7.055127
392.013550	1376.690063	9814.321289	2057.070801	8.063646
392.377502	1374.414551	9825.699219	2088.927979	8.454494
392.741455	1342.557251	9689.167969	2022.937988	8.151582
393.105316	1378.965576	9873.484375	2127.612061	8.813290
393.469086	1424.476074	9550.360352	2088.927979	8.176980
393.832886	1358.485962	9347.839844	2173.122314	10.196524
394.196655	1338.006226	9370.594727	2088.927979	9.348440
394.560333	1401.720825	9486.646484	2129.887451	9.006473
394.924042	1326.628662	9777.913086	2195.877686	10.285408
395.287659	1403.996338	9752.881836	2157.193604	9.021530
395.651245	1403.996338	9707.372070	2225.459229	9.893119
396.014771	1435.853638	9545.809570	2227.734863	9.764310
396.378296	1413.098389	9224.960938	2148.091553	9.408681
396.741791	1381.241089	8965.551758	2143.540527	10.051005
397.105255	1374.414551	8788.061523	2136.714111	10.282383
397.468628	1363.036987	8683.387695	2098.030273	10.040411
397.832001	1381.241089	8644.703125	2075.274902	9.555138
398.195313	1338.006226	8685.663086	2209.530762	11.861259
398.558624	1381.241089	8849.500000	2138.989502	10.146253
398.921844	1385.792114	8756.204102	2259.592041	11.855510
399.285095	1363.036987	8726.622070	2268.694336	12.299136
399.648254	1324.353149	8774.408203	2257.316650	12.522907
400.011383	1415.373901	8765.305664	2280.071777	11.764707
400.374451	1399.445313	8521.825195	2168.571289	10.798721
400.737549	1383.516602	9147.593750	2257.316650	11.254396
401.100586	1367.588013	8781.234375	2286.898438	12.400247
401.463562	1326.628662	8599.193359	2223.183838	12.327909
401.826508	1388.067749	9013.337891	2223.183838	10.951954
402.189392	1360.761475	8831.295898	2309.653564	12.701797
402.552246	1353.934937	8753.928711	2248.214600	12.084870
402.915070	1376.690063	8835.847656	2291.449463	12.263575
403.277893	1442.680176	9147.593750	2334.684326	11.577082
403.640656	1440.404663	9234.063477	2421.154053	12.583941
404.003326	1431.302612	9491.197266	2457.562500	12.732920
404.366028	1388.067749	9682.340820	2505.348389	13.470507
404.728699	1397.169800	9980.434570	2666.910400	14.793213
405.091248	1349.383789	10308.109375	2605.471436	14.020829
405.453857	1374.414551	10178.404297	2550.858887	13.362626
405.816345	1390.343262	10185.231445	2509.899414	12.729623
406.178833	1394.894287	10114.690430	2694.216553	14.900833
406.541260	1367.588013	10269.425781	2655.532715	14.468301
406.903687	1328.904175	9695.994141	2616.848877	15.392982
407.266052	1310.699951	9755.157227	2575.889648	14.982488
407.628387	1408.547363	9823.422852	2612.297852	14.305031
407.990662	1408.547363	9579.942383	2685.114502	15.622389
408.352905	1347.108276	9618.625977	2528.103516	14.277854
408.715118	1413.098389	9668.687500	2619.124512	14.608602
409.077332	1413.098389	9645.932617	2555.409912	13.875071
409.439484	1363.036987	9725.576172	2630.501953	15.156461
409.801575	1435.853638	9693.718750	2596.369141	14.053456
410.163605	1374.414551	9941.750000	2680.563477	15.245684
410.525635	1308.424438	9991.811523	2721.522949	16.273586
410.887604	1406.271851	10139.720703	2883.084961	16.909849
411.249573	1349.383789	10276.251953	2771.584229	15.931684
411.611481	1442.680176	10162.475586	2801.166016	15.579332
411.973328	1413.098389	10255.772461	2789.788574	15.568709
412.335144	1408.547363	10010.015625	2789.788574	16.058203
412.696930	1401.720825	10126.067383	2696.492188	14.840898
413.058685	1367.588013	9595.871094	2744.278076	16.731194
413.420410	1422.200562	9959.954102	2728.349365	15.298506
413.782104	1381.241089	10073.730469	2821.645752	16.570681
414.143707	1353.934937	10071.455078	2755.655762	16.079351
414.505310	1344.832764	10023.668945	2742.002686	16.098587
414.866852	1378.965576	10160.200195	2871.707275	16.999224
415.228394	1390.343262	10496.977539	2835.298828	15.867064
415.589874	1358.485962	10522.007813	2887.635986	16.687363
415.951324	1451.782227	10435.538086	2892.187012	16.033436
416.312683	1378.965576	10888.367188	2928.595215	16.295765
416.674072	1390.343262	11245.624023	2914.942139	15.469867
417.035370	1413.098389	11379.879883	3065.126465	16.575342
417.396667	1367.588013	11250.174805	2996.860840	16.486300
417.757935	1408.547363	11618.809570	3112.912354	16.692667
418.119141	1394.894287	12242.301758	3035.544678	15.124816
418.480286	1369.863525	12376.557617	3137.943115	16.063675
418.841400	1360.761475	12979.570313	3203.933350	15.863690
419.202484	1413.098389	13311.796875	3162.973877	14.706445
419.563568	1435.853638	13828.339844	3342.739990	15.387440
419.924591	1415.373901	14529.200195	3474.720215	15.703626
420.285553	1331.179688	14586.087891	3436.036377	15.879828
420.646484	1390.343262	15689.715820	3759.160400	16.565882
421.007355	1392.618774	15871.757813	3706.823486	15.983027
421.368225	1342.557251	16888.916016	3861.558838	16.203161
421.729065	1401.720825	17325.814453	4093.661865	16.904829
422.089874	1365.312500	18090.390625	4168.753906	16.761904
422.450592	1322.077637	17860.562500	4111.866211	16.868465
422.811279	1383.516602	17555.642578	4277.979004	17.897848
423.171936	1344.832764	17357.671875	4118.692871	17.322725
423.532593	1378.965576	16775.138672	4207.437988	18.371269
423.893127	1356.210449	17450.968750	4216.540039	17.771809
424.253723	1381.241089	17780.919922	4337.142578	18.024141
424.614197	1433.578125	17901.521484	4303.009766	17.424347
424.974670	1381.241089	18420.341797	4546.490723	18.576387
425.335052	1322.077637	18811.730469	4384.928711	17.512362
425.695496	1381.241089	17758.164063	4362.173340	18.202028
426.055817	1392.618774	18076.736328	4466.847168	18.426079
426.416168	1401.720825	17633.009766	4560.143555	19.458855
426.776398	1381.241089	16750.109375	4318.938477	19.114597
427.136627	1426.751587	16153.921875	4177.855957	18.680470
427.496826	1399.445313	15619.174805	4211.988770	19.779163
427.856995	1356.210449	15232.335938	4148.274414	20.121351
428.217102	1408.547363	14661.180664	4048.151611	19.917583
428.577179	1356.210449	14779.507813	3922.997803	19.121885
428.937195	1365.312500	14622.497070	3850.181152	18.743563
429.297180	1342.557251	14165.117188	3709.098877	18.456078
429.657135	1319.802124	13691.808594	3750.058350	19.643187
430.017059	1403.996338	14149.188477	3829.701416	19.032314
430.376984	1392.618774	13823.789063	3784.191162	19.238514
430.736786	1410.822876	13778.278320	3702.272461	18.528061
431.096588	1322.077637	13562.103516	3770.538086	20.003721
431.456360	1424.476074	13500.665039	3674.966064	18.635763
431.816071	1381.241089	13307.246094	3604.425049	18.641481
432.175781	1394.894287	13448.328125	3699.996826	19.124033
432.535400	1301.597900	13559.828125	3690.894775	19.491369
432.895020	1324.353149	13163.887695	3772.813477	20.680378
433.254578	1401.720825	13457.429688	3761.435791	19.573421
433.614105	1435.853638	13787.380859	4029.947266	21.002211
433.973602	1458.608887	14001.279297	3952.579590	19.883890
434.333038	1363.036987	14014.932617	3943.477539	20.395683
434.692444	1344.832764	14322.127930	4116.416992	21.357180
435.051819	1374.414551	14492.791992	4175.580566	21.352993
435.411133	1424.476074	14574.710938	4237.019531	21.387781
435.770416	1492.741699	13634.920898	4161.927734	21.982758
436.129669	1363.036987	14347.158203	4473.673828	23.957237
436.488861	1342.557251	14087.749023	4321.213867	23.370829
436.848083	1317.526489	14083.198242	4273.428223	23.155083
437.207184	1356.210449	13830.615234	4387.204102	24.297703
437.566254	1324.353149	14285.719727	4460.020996	24.192419
437.925293	1454.057739	14222.004883	4519.184082	24.006416
438.284363	1324.353149	14338.056641	4512.357910	24.497292
438.643311	1351.659302	14706.691406	4532.837402	23.820072
439.002258	1419.924927	14718.068359	4657.991211	24.349762
439.361145	1388.067749	15075.325195	4749.011719	24.555275
439.719971	1388.067749	15564.562500	4981.115234	25.345104
440.078827	1417.649414	15676.062500	5056.207031	25.518671
440.437592	1342.557251	16137.993164	5229.146973	26.268845
440.796295	1347.108276	16015.115234	5315.616699	27.055538
441.155029	1338.006226	17460.070313	5431.667969	25.391672
441.513672	1381.241089	17972.062500	5927.731445	27.403646
441.872253	1385.792114	17667.142578	5813.955566	27.197765
442.230865	1399.445313	17405.458984	5684.250977	26.769974
442.589386	1394.894287	17155.150391	5757.067871	27.678318
442.947876	1403.996338	17248.447266	5575.025879	26.324858
443.306335	1376.690063	16893.466797	5675.148926	27.702011
443.664764	1301.597900	16046.972656	5458.974609	28.194447
444.023102	1360.761475	16556.689453	5675.148926	28.391737
444.381500	1365.312500	16490.699219	5661.495605	28.403790
444.739777	1358.485962	16131.166992	5515.862305	28.142330
445.098022	1408.547363	16297.280273	5668.322266	28.610729
445.456238	1356.210449	16322.310547	5716.108398	29.131824
445.814423	1403.996338	17268.927734	5854.915039	28.055079
446.172577	1351.659302	17896.970703	6191.691895	29.253199
446.530701	1438.129150	17655.765625	6146.181641	29.030449
446.888733	1413.098389	18465.851563	6416.968750	29.343472
447.246765	1417.649414	19273.662109	6578.530762	28.902767
447.604736	1458.608887	18754.841797	6489.785156	29.088278
447.962677	1394.894287	18914.128906	6517.091797	29.237564
448.320587	1424.476074	19369.232422	6487.509766	28.214560
448.678436	1403.996338	18973.292969	6567.152832	29.387381
449.036255	1369.863525	18795.802734	6437.448242	29.080698
449.394043	1358.485962	17865.113281	6127.977539	28.894405
449.751770	1349.383789	17630.734375	6166.661133	29.587702
450.109467	1372.139038	17623.908203	5989.170898	28.409409
450.467163	1342.557251	17350.845703	5943.660156	28.742006
450.824768	1349.383789	17241.621094	6043.783203	29.538946
451.182343	1331.179688	16959.457031	5895.874512	29.207920
451.539886	1363.036987	15960.502930	5722.935059	29.867498
451.897369	1435.853638	16338.239258	5809.404785	29.347994
452.254822	1426.751587	16158.473633	5816.230957	29.796106
452.612274	1272.016113	16925.324219	5857.190430	29.292046
452.969635	1363.036987	16583.996094	5820.782227	29.286888
453.326965	1378.965576	16467.943359	5829.884277	29.497816
453.684326	1403.996338	16185.779297	5741.139160	29.341133
454.041534	1394.894287	15980.982422	5656.944824	29.219973
454.398773	1390.343262	15503.123047	5584.127930	29.716221
454.755951	1433.578125	15129.937500	5411.188477	29.041370
455.113098	1408.547363	14636.149414	5233.697754	28.917944
455.470215	1408.547363	15032.090820	5461.250000	29.747787
455.827240	1374.414551	14959.273438	5197.289551	28.140703
456.184265	1492.741699	14759.028320	5060.758301	26.895367
456.541260	1347.108276	14781.783203	5224.595703	28.861788
456.898193	1385.792114	14381.291016	5261.003906	29.819647
457.255096	1374.414551	14727.170898	5151.779297	28.289028
457.611969	1360.761475	14611.119141	5215.493652	29.091534
457.968781	1374.414551	14888.732422	5169.983398	28.085537
458.325531	1376.690063	14991.130859	5197.289551	28.062847
458.682312	1401.720825	15830.797852	5458.974609	28.118595
459.039001	1360.761475	16304.106445	5636.464844	28.612759
459.395630	1429.027100	17216.589844	5873.119141	28.149323
459.752289	1385.792114	18661.546875	6264.508789	28.240253
460.108856	1376.690063	19712.835938	6655.898438	28.791265
460.465363	1422.200562	20363.634766	6630.867676	27.498800
460.821899	1385.792114	20441.003906	6746.918945	28.134703
461.178345	1458.608887	20004.103516	6778.776367	28.687117
461.534760	1372.139038	19492.111328	6512.540527	28.368704
461.891144	1342.557251	19321.447266	6350.978516	27.857233
462.247467	1351.659302	18092.666016	5904.976563	27.198589
462.603760	1438.129150	17890.144531	5986.895020	27.648684
462.960052	1317.526489	16822.925781	5763.894043	28.676254
463.316254	1347.108276	16392.851563	5581.852539	28.145796
463.672424	1433.578125	16263.147461	5413.463867	26.837500
464.028564	1363.036987	15503.123047	5251.901855	27.502413
464.384644	1340.281738	15450.786133	5301.963379	28.076117
464.740723	1335.730713	15575.939453	5324.718750	28.012146
465.096741	1383.516602	15377.969727	5226.871094	27.463413
465.452698	1390.343262	15266.468750	5179.085449	27.304037
465.808655	1451.782227	15694.266602	5231.422363	26.537786
466.164520	1344.832764	15352.938477	5190.462891	27.452892
466.520355	1381.241089	16413.332031	5415.739746	26.839237
466.876190	1381.241089	16240.391602	5431.667969	27.258804
467.231964	1433.578125	16210.810547	5383.882324	26.732368
467.587677	1392.618774	16948.078125	5534.066406	26.623758
467.943390	1397.169800	16993.589844	5620.536621	27.079079
468.299011	1415.373901	16274.524414	5418.015137	26.937214
468.654633	1429.027100	16406.505859	5290.585938	25.782436
469.010223	1442.680176	16317.759766	5313.341309	26.021111
469.365723	1381.241089	16035.594727	5352.024902	27.096273
469.721191	1388.067749	16003.738281	5097.166504	25.377546
470.076660	1360.761475	15425.755859	5058.482910	26.290245
470.432068	1394.894287	15521.327148	5165.432129	26.691366
470.787445	1340.281738	15530.429688	4862.788086	24.823605
471.142792	1338.006226	15398.449219	5056.207031	26.444407
471.498016	1322.077637	15960.502930	5090.339844	25.742264
471.853271	1383.516602	15516.776367	5028.900879	25.792948
472.208496	1388.067749	15737.501953	4924.227051	24.643196
472.563660	1403.996338	15773.910156	5026.625488	25.209818
472.918762	1399.445313	15971.880859	5131.299316	25.608994
473.273865	1442.680176	16761.486328	5129.023926	24.064171
473.628876	1365.312500	16970.833984	5306.514648	25.255177
473.983917	1358.485962	16861.609375	5210.942871	24.849554
474.338837	1369.863525	16786.517578	5058.482910	23.926199
474.693787	1397.169800	16718.251953	5188.187500	24.743797
475.048645	1378.965576	16882.087891	5126.748535	24.174376
475.403503	1406.271851	16866.160156	5183.636230	24.433321
475.758270	1433.578125	17202.937500	5154.054688	23.593073
476.113037	1410.822876	17107.365234	5217.769043	24.253407
476.467773	1458.608887	17257.548828	5188.187500	23.606512
476.822418	1419.924927	18399.861328	5388.433105	23.371752
477.177063	1369.863525	17712.654297	5415.739746	24.756336
477.531647	1399.445313	18363.453125	5474.902832	24.024143
477.886200	1422.200562	18802.628906	5454.423340	23.199789
478.240723	1281.118164	19405.640625	5572.750488	23.678595
478.595184	1265.189575	19564.927734	5620.536621	23.800051
478.949585	1399.445313	19812.958984	5552.270996	22.553141
479.303986	1390.343262	19956.318359	5622.812012	22.796911
479.658325	1374.414551	20327.226563	5650.118164	22.559732
480.012634	1401.720825	20017.755859	5565.923828	22.368904
480.366913	1344.832764	20780.056641	5798.026855	22.913008
480.721130	1306.148926	21312.527344	5795.751465	22.440855
481.075317	1419.924927	21685.712891	5948.211426	22.344490
481.429474	1394.894287	22743.830078	6118.875488	22.127480
481.783569	1319.802124	24054.531250	6305.468262	21.929737
482.137604	1417.649414	24598.378906	6521.642578	22.018259
482.491669	1394.894287	26844.318359	6872.072754	21.521818
482.845612	1383.516602	29565.841797	7370.412109	21.243441
483.199554	1376.690063	33013.253906	8223.732422	21.642813
483.553436	1413.098389	38042.156250	9220.410156	21.314529
483.907318	1358.485962	44593.382813	10606.202148	21.389471
484.261139	1392.618774	51827.261719	12164.934570	21.358959
484.614899	1365.312500	54972.031250	12938.611328	21.589270
484.968628	1406.271851	55147.246094	13277.664063	22.090021
485.322357	1312.975464	53194.851563	12485.782227	21.535086
485.675964	1376.690063	49699.648438	11616.534180	21.190434
486.029572	1388.067749	45867.671875	10572.069336	20.647669
486.383148	1365.312500	42611.402344	9741.504883	20.307846
486.736694	1347.108276	40135.636719	9227.237305	20.315619
487.090149	1390.343262	39992.277344	9220.410156	20.284132
487.443604	1426.751587	40686.312500	9149.869141	19.671940
487.796997	1417.649414	42342.890625	9661.861328	20.144566
488.150360	1390.343262	44051.808594	9843.903320	19.815449
488.503693	1376.690063	44802.730469	9764.259766	19.314608
488.856964	1363.036987	44299.839844	9566.289063	19.105408
489.210175	1358.485962	41992.460938	9133.940430	19.135353
489.563416	1495.017212	39990.003906	8601.468750	18.460720
489.916565	1408.547363	37557.472656	8064.445801	18.412437
490.269653	1479.088501	34886.007813	7759.525879	18.799810
490.622772	1392.618774	33912.085938	7279.391113	18.102303
490.975769	1390.343262	33445.605469	7227.054199	18.208277
491.328735	1353.934937	34876.906250	7406.820313	18.055933
491.681732	1401.720825	36742.835938	7795.934082	18.092846
492.034607	1390.343262	39123.027344	8034.863770	17.609457
492.387482	1353.934937	39880.777344	8187.323730	17.736694
492.740326	1463.159912	39093.449219	8148.640137	17.766222
493.093079	1390.343262	37502.859375	7632.096680	17.284184
493.445862	1431.302612	34394.496094	6958.542480	16.767912
493.798523	1447.231201	31925.556641	6619.490234	16.970285
494.151215	1385.792114	29688.720703	6105.222168	16.674707
494.503815	1390.343262	27695.363281	5725.210449	16.479240
494.856384	1308.424438	25934.111328	5545.444336	17.205692
495.208923	1353.934937	24691.675781	5329.269531	17.033930
495.561432	1419.924927	24020.398438	5115.370605	16.351189
495.913879	1394.894287	23467.445313	4951.533203	16.113401
496.266296	1331.179688	23574.394531	4969.737305	16.358057
496.618683	1372.139038	23531.160156	4883.267578	15.845142
496.970978	1378.965576	24354.898438	4908.298340	15.360998
497.323273	1403.996338	23949.855469	4896.920898	15.492533
497.675507	1410.822876	24571.074219	4990.217285	15.454904
498.027710	1456.333252	24434.542969	4933.329102	15.131710
498.379852	1449.506714	24052.253906	4828.655273	14.950167
498.731995	1417.649414	24100.041016	4837.757324	15.078252
499.084076	1356.210449	23795.121094	4660.266602	14.724673
499.436096	1356.210449	23783.744141	4537.388672	14.184254
499.788086	1444.955688	22536.757813	4621.582520	15.060955
500.140106	1419.924927	22493.523438	4489.602539	14.566463
500.491943	1349.383789	22240.939453	4348.520020	14.355735
500.843842	1447.231201	21731.224609	4262.050293	13.877046
501.195679	1388.067749	21125.935547	4048.151611	13.477059
501.547455	1356.210449	20841.494141	4207.437988	14.632723
501.899231	1358.485962	20814.189453	4043.600586	13.801170
502.250885	1356.210449	20511.544922	4054.978027	14.088857
502.602600	1442.680176	20466.033203	3938.926514	13.122010
502.954193	1435.853638	20406.871094	3952.579590	13.266163
503.305786	1429.027100	20199.798828	4011.743164	13.759243
503.657379	1388.067749	20648.076172	4004.916504	13.586955
504.008820	1335.730713	20495.615234	3888.864990	13.325416
504.360291	1351.659302	20843.771484	3886.589600	13.004903
504.711700	1363.036987	20805.085938	3850.181152	12.792603
505.063080	1401.720825	20839.218750	3841.079102	12.549755
505.414368	1401.720825	20855.148438	3950.304199	13.100948
505.765656	1410.822876	20666.279297	3745.507324	12.124794
506.116943	1333.455200	20677.658203	3775.089111	12.622044
506.468109	1349.383789	20495.615234	3731.854004	12.443547
506.819305	1342.557251	20388.666016	3656.761963	12.150537
507.170410	1415.373901	20689.035156	3533.883789	10.991735
507.521484	1358.485962	20436.453125	3731.854004	12.440362
507.872559	1390.343262	20356.808594	3593.047363	11.613678
508.223480	1367.588013	20550.228516	3631.731201	11.803083
508.574493	1401.720825	21098.628906	3636.282227	11.344732
508.925385	1438.129150	21073.597656	3663.588379	11.333874
509.276245	1385.792114	21444.507813	3649.935303	11.287578
509.627045	1426.751587	21874.582031	3768.262451	11.451145
509.977814	1403.996338	22272.796875	3661.312988	10.816705
510.328613	1410.822876	22391.125000	3593.047363	10.401301
510.679260	1374.414551	22090.755859	3659.037354	11.028119
511.029999	1397.169800	22409.328125	3754.609375	11.219406
511.380585	1299.322388	22341.062500	3670.415039	11.268520
511.731140	1469.986450	22828.025391	3599.874023	9.972300
512.081726	1392.618774	22909.943359	3652.210938	10.501270
512.432129	1403.996338	23399.179688	3649.935303	10.211049
512.782654	1319.802124	23417.384766	3577.118652	10.215219
513.133057	1415.373901	23483.375000	3583.945313	9.826768
513.483398	1378.965576	23355.945313	3506.577637	9.681093
513.833801	1353.934937	23622.181641	3593.047363	10.055181
514.183960	1408.547363	22989.585938	3474.720215	9.574019
514.534302	1419.924927	23037.373047	3424.658691	9.273685
514.884460	1367.588013	23014.617188	3313.158203	8.987700
515.234619	1403.996338	22814.371094	3411.005615	9.374003
515.584717	1378.965576	22684.666016	3399.628174	9.484140
515.934753	1326.628662	22691.494141	3299.505127	9.234210
516.284851	1392.618774	22946.351563	3306.331787	8.878801
516.634766	1399.445313	22853.054688	3192.555664	8.358083
516.984741	1458.608887	23208.037109	3224.413086	8.118854
517.334595	1365.312500	24020.398438	3351.842041	8.768580
517.684448	1372.139038	24773.595703	3549.812500	9.305717
518.034363	1422.200562	25417.566406	3447.414063	8.440020
518.384094	1378.965576	26621.318359	3465.618164	8.266474
518.733826	1385.792114	27590.689453	3540.710449	8.223343
519.083496	1326.628662	28701.144531	3627.180176	8.403990
519.433167	1363.036987	28894.562500	3659.037354	8.339533
519.782776	1328.904175	29163.074219	3554.363525	7.995422
520.132324	1294.771362	28425.806641	3508.853027	8.160697
520.481873	1351.659302	27827.343750	3472.444824	8.010315
520.831299	1342.557251	27263.015625	3388.250488	7.892195
521.180786	1312.975464	26751.023438	3190.280273	7.379909
521.530151	1426.751587	26327.775391	3219.861816	7.200950
521.879517	1403.996338	25483.556641	3213.035400	7.512758
522.228882	1356.210449	25761.171875	3160.698486	7.393939
522.578064	1397.169800	25155.882813	3065.126465	7.020400
522.927307	1372.139038	25399.363281	2999.136475	6.771475
523.276489	1319.802124	25228.699219	2899.013428	6.605120
523.625610	1317.526489	25836.263672	2971.830078	6.747100
523.974792	1376.690063	25927.283203	2999.136475	6.608583
524.323792	1331.179688	26603.113281	3028.718262	6.717090
524.672852	1399.445313	26967.197266	3049.197754	6.452474
525.021790	1358.485962	27599.791016	2994.585449	6.234825
525.370728	1392.618774	29126.666016	3030.993652	5.907450
525.719604	1360.761475	30755.939453	3256.270264	6.448367
526.068420	1363.036987	32626.417969	3249.443604	6.033917
526.417297	1367.588013	33233.980469	3290.403076	6.033990
526.765991	1431.302612	34374.015625	3395.077148	5.961180
527.114746	1392.618774	35379.796875	3392.801514	5.885109
527.463379	1410.822876	36647.261719	3347.291016	5.495641
527.812012	1417.649414	38394.863281	3454.240479	5.507692
528.160706	1476.812988	41778.562500	3750.058350	5.640563
528.509155	1444.955688	46067.917969	3759.160400	5.186130
528.857727	1401.720825	50678.125000	4105.039551	5.486031
529.206177	1440.404663	54742.203125	4369.000000	5.494365
529.554565	1415.373901	55365.695313	4373.550781	5.483150
529.902893	1353.934937	54284.824219	4277.979004	5.524267
530.251221	1360.761475	51758.996094	4000.365479	5.237493
530.599548	1363.036987	48297.929688	3729.578613	5.042179
530.947876	1347.108276	44943.812500	3520.230713	4.984603
531.296021	1449.506714	41007.160156	3470.169189	5.108146
531.644165	1406.271851	38410.792969	3260.821289	5.011683
531.992249	1438.129150	36474.324219	3117.463379	4.793141
532.340454	1324.353149	35443.511719	3046.922363	5.048686
532.688354	1419.924927	35152.246094	2969.554688	4.593902
533.036438	1365.312500	35969.156250	2958.177002	4.603143
533.384338	1360.761475	37821.429688	3012.789551	4.530987
533.732239	1392.618774	40349.535156	3005.962891	4.141355
534.080139	1388.067749	40649.902344	3101.534912	4.364205
534.427917	1388.067749	40731.824219	3151.596191	4.482359
534.775757	1388.067749	39243.632813	3019.616211	4.309930
535.123474	1381.241089	37316.265625	2899.013428	4.223658
535.471191	1372.139038	34797.265625	2773.859863	4.193614
535.818848	1335.730713	33953.046875	2671.461426	4.095158
536.166382	1399.445313	33120.207031	2653.257324	3.952654
536.513977	1463.159912	32471.681641	2596.369141	3.654509
536.861511	1365.312500	33193.023438	2639.604248	4.003718
537.208984	1399.445313	33161.164063	2498.521729	3.460381
537.556396	1358.485962	33147.511719	2635.052979	4.015748
537.903809	1403.996338	32387.488281	2584.991699	3.811692
538.251160	1435.853638	31188.289063	2439.358398	3.372849
538.598389	1397.169800	30419.162109	2418.878662	3.520464
538.945740	1363.036987	29188.105469	2430.256104	3.835459
539.292969	1401.720825	28601.021484	2359.715088	3.522128
539.640137	1417.649414	28682.939453	2298.276123	3.229846
539.987244	1363.036987	28553.234375	2318.755615	3.514938
540.334351	1419.924927	29197.207031	2339.235352	3.309577
540.681458	1415.373901	31151.878906	2393.847900	3.290481
541.028442	1344.832764	33218.050781	2387.021240	3.269794
541.375366	1401.720825	36224.015625	2584.991699	3.398027
541.722290	1403.996338	39728.316406	2575.889648	3.057832
542.069153	1376.690063	41507.773438	2746.553711	3.413473
542.416016	1367.588013	41865.031250	2739.727051	3.388212
542.762756	1406.271851	41346.214844	2493.970703	2.723336
543.109558	1360.761475	40128.808594	2566.787354	3.110876
543.456299	1381.241089	38199.167969	2523.552490	3.102596
543.802917	1397.169800	36845.234375	2514.450439	3.151880
544.149536	1438.129150	35211.410156	2405.225586	2.863496
544.496094	1367.588013	33224.878906	2330.133301	3.021429
544.842651	1410.822876	31661.595703	2193.602051	2.587634
545.189148	1358.485962	30020.945313	2211.806152	2.977135
545.535583	1383.516602	28767.134766	2041.142212	2.401529
545.882019	1413.098389	28218.734375	2132.163086	2.682513
546.228333	1413.098389	27772.730469	2186.775391	2.935083
546.574707	1297.046875	27501.945313	2116.234375	3.126085
546.920898	1349.383789	27267.566406	2091.203613	2.862160
547.267212	1317.526489	27472.363281	2191.326416	3.340873
547.613342	1369.863525	27547.455078	2061.621826	2.642559
547.959473	1419.924927	26930.789063	2016.111450	2.336991
548.305664	1369.863525	26616.767578	1979.703125	2.415503
548.651611	1438.129150	25319.720703	1995.631714	2.334445
548.997742	1417.649414	24341.246094	1968.325439	2.402223
549.343689	1344.832764	23535.710938	1859.100464	2.317473
549.689575	1388.067749	22391.125000	1881.855713	2.351029
550.035522	1422.200562	21988.357422	1963.774414	2.633326
550.381287	1408.547363	21244.261719	1834.069824	2.145234
550.727173	1388.067749	20868.800781	1872.753662	2.488027
551.072876	1424.476074	20518.371094	1822.692139	2.085567
551.418640	1317.526489	20122.429688	1818.141113	2.662150
551.764282	1419.924927	20252.134766	1740.773438	1.703722
552.109863	1378.965576	19963.144531	1863.651489	2.608057
552.455505	1424.476074	20204.349609	1786.283813	1.926572
552.801025	1372.139038	20190.695313	1831.794189	2.442563
553.146545	1351.659302	20693.585938	1820.416626	2.423530
553.491943	1378.965576	21098.628906	1777.181763	2.019386
553.837341	1424.476074	21094.078125	1836.345337	2.093938
554.182800	1385.792114	20372.738281	1806.763550	2.217163
554.528015	1353.934937	20359.083984	1743.048950	2.047414
554.873352	1310.699951	19949.490234	1777.181763	2.502747
555.218628	1397.169800	19751.521484	1738.497925	1.859658
555.563721	1426.751587	19423.845703	1745.324463	1.770135
555.908875	1324.353149	19203.119141	1777.181763	2.532773
556.254028	1449.506714	18677.474609	1749.875488	1.743495
556.599121	1397.169800	18693.404297	1779.457275	2.210235
556.944031	1433.578125	18352.076172	1784.008301	2.071284
557.289063	1385.792114	18336.146484	1692.987427	1.812324
557.633972	1449.506714	18131.349609	1672.507813	1.336789
557.978882	1397.169800	18329.320313	1722.569214	1.921784
558.323792	1415.373901	17858.287109	1733.946899	1.937449
558.668518	1490.466064	17623.908203	1674.783325	1.142455
559.013306	1363.036987	17883.318359	1661.130127	1.804407
559.358032	1401.720825	17680.796875	1683.885376	1.733296
559.702637	1485.915039	17633.009766	1672.507813	1.155581
560.047363	1394.894287	17760.439453	1663.405762	1.640712
560.391846	1401.720825	17514.683594	1711.191650	1.920633
560.736450	1390.343262	17398.632813	1733.946899	2.146411
561.080933	1374.414551	17992.542969	1636.099487	1.574696
561.425354	1333.455200	17648.939453	1763.528564	2.635983
561.769775	1378.965576	17856.011719	1729.395752	2.126778
562.114136	1385.792114	17812.777344	1617.895264	1.412938
562.458496	1340.281738	18099.492188	1674.783325	1.995927
562.802673	1356.210449	18101.767578	1672.507813	1.888844
563.146912	1390.343262	17835.531250	1583.762451	1.176145
563.491150	1353.934937	17721.755859	1708.916138	2.168775
563.835266	1365.312500	17692.173828	1586.037964	1.351916
564.179443	1413.098389	17612.531250	1622.446289	1.292316
564.523438	1399.445313	17514.683594	1645.201538	1.524993
564.867493	1376.690063	17607.980469	1624.721802	1.528109
565.211426	1472.261963	17837.806641	1661.130127	1.154060
565.555359	1381.241089	18085.839844	1679.334351	1.784498
565.899231	1401.720825	18331.595703	1613.344238	1.250000
566.243042	1397.169800	19016.527344	1665.681274	1.523957
566.586914	1376.690063	19526.244141	1695.262939	1.755265
566.930603	1342.557251	20008.654297	1658.854614	1.694502
567.274292	1381.241089	20095.125000	1702.089600	1.714494
567.617981	1388.067749	20017.755859	1704.365112	1.697814
567.961609	1360.761475	19528.519531	1686.160889	1.791082
568.305237	1365.312500	19164.435547	1642.926025	1.559703
568.648682	1447.231201	19052.935547	1631.548462	1.046918
568.992188	1376.690063	18811.730469	1638.375000	1.500914
569.335632	1367.588013	18493.158203	1720.293701	2.059527
569.679016	1451.782227	18613.759766	1597.415649	0.848582
570.022461	1465.435425	18388.484375	1597.415649	0.779884
570.365662	1363.036987	18556.873047	1604.242188	1.402859
570.708984	1438.129150	18586.453125	1597.415649	0.928875
571.052185	1440.404663	18377.105469	1572.384888	0.779256
571.395386	1399.445313	18670.648438	1649.752563	1.449275
571.738525	1381.241089	19196.292969	1640.650513	1.456125
572.081604	1372.139038	19469.355469	1604.242188	1.282535
572.424683	1390.343262	19683.255859	1608.793213	1.194178
572.767578	1333.455200	20095.125000	1597.415649	1.406913
573.110596	1338.006226	20035.960938	1695.262939	1.910673
573.453552	1342.557251	20047.337891	1640.650513	1.593674
573.796387	1312.975464	20020.031250	1692.987427	2.031383
574.139282	1399.445313	19558.101563	1677.058838	1.528822
574.481995	1435.853638	19471.630859	1631.548462	1.085037
574.824768	1390.343262	19371.507813	1583.762451	1.075677
575.167480	1392.618774	19469.355469	1661.130127	1.485397
575.510132	1388.067749	19037.007813	1615.619751	1.289324
575.852722	1417.649414	18982.394531	1601.966675	1.049359
576.195251	1369.863525	18968.742188	1679.334351	1.758469
576.537842	1424.476074	18736.638672	1658.854614	1.353837
576.880188	1349.383789	18836.761719	1670.232300	1.834743
577.222717	1433.578125	18185.962891	1547.354126	0.679163
577.565063	1397.169800	17851.460938	1508.670288	0.677638
577.907410	1351.659302	17760.439453	1631.548462	1.705728
578.249756	1413.098389	17052.751953	1592.864502	1.149425
578.591919	1312.975464	16661.363281	1583.762451	1.764270
578.934204	1426.751587	16231.290039	1542.803101	0.783891
579.276306	1378.965576	16128.891602	1579.211426	1.357606
579.618469	1376.690063	16092.483398	1583.762451	1.407144
579.960571	1374.414551	15594.144531	1460.884399	0.608098
580.302551	1312.975464	15366.591797	1581.486938	1.910622
580.644531	1408.547363	15209.581055	1590.588989	1.319044
580.986511	1310.699951	15079.875977	1588.313477	2.016196
581.328369	1388.067749	14790.884766	1506.394775	0.882852
581.670227	1392.618774	14699.864258	1581.486938	1.419288
582.012024	1347.108276	14581.537109	1588.313477	1.822558
582.353821	1331.179688	14774.957031	1506.394775	1.303317
582.695496	1383.516602	14754.476563	1515.496826	0.987066
583.037231	1394.894287	14472.312500	1510.945801	0.887419
583.378845	1406.271851	14779.507813	1479.088501	0.544495
583.720398	1390.343262	14613.394531	1574.660400	1.393908
584.062012	1376.690063	14561.057617	1542.803101	1.259924
584.403442	1431.302612	14545.128906	1520.047852	0.676730
584.744934	1385.792114	14499.618164	1601.966675	1.648448
585.086365	1381.241089	14429.077148	1576.935913	1.499826
585.427734	1338.006226	14308.474609	1522.323364	1.421052
585.768982	1376.690063	14024.035156	1438.129150	0.485786
586.110291	1356.210449	14363.086914	1508.670288	1.172148
586.451599	1435.853638	14035.412109	1565.558350	1.029438
586.792725	1335.730713	13921.636719	1517.772339	1.446393
587.133850	1381.241089	14174.218750	1506.394775	0.978300
587.474915	1479.088501	14137.810547	1535.976563	0.449398
587.815979	1376.690063	14090.024414	1556.456177	1.413997
588.157043	1417.649414	14105.953125	1545.078613	1.004304
588.497925	1440.404663	14046.790039	1588.313477	1.173285
588.838867	1401.720825	14456.383789	1615.619751	1.638487
589.179749	1417.649414	14379.015625	1524.598877	0.825140
589.520569	1431.302612	14404.046875	1526.874512	0.736713
589.861450	1408.547363	14827.293945	1515.496826	0.797015
590.202087	1424.476074	14916.039063	1517.772339	0.691516
590.542847	1415.373901	14733.997070	1561.007324	1.093457
590.883484	1431.302612	14806.813477	1535.976563	0.782579
591.224121	1388.067749	14479.138672	1572.384888	1.407961
591.564636	1374.414551	14690.762695	1572.384888	1.486671
591.905151	1419.924927	14510.996094	1517.772339	0.747436
592.245667	1394.894287	14422.250977	1581.486938	1.432314
592.585999	1413.098389	14399.496094	1467.710938	0.420537
592.926453	1417.649414	14385.842773	1581.486938	1.263380
593.266724	1385.792114	14199.250000	1545.078613	1.243119
593.607056	1351.659302	14324.403320	1501.843750	1.157692
593.947388	1322.077637	14192.422852	1497.292725	1.361386
594.287476	1388.067749	14328.954102	1626.997314	1.846315
594.627686	1369.863525	14319.852539	1549.629639	1.388156
594.967773	1403.996338	14649.802734	1533.701050	0.979213
595.307861	1460.884399	15075.325195	1522.323364	0.451278
595.647888	1349.383789	14840.946289	1538.252075	1.399899
595.987854	1376.690063	15088.978516	1624.721802	1.808828
596.327820	1442.680176	15084.427734	1547.354126	0.767306
596.667725	1344.832764	15441.684570	1497.292725	1.081518
597.007568	1408.547363	15953.676758	1533.701050	0.860451
597.347351	1360.761475	16636.332031	1588.313477	1.489647
597.687073	1488.190552	17148.324219	1531.425537	0.276083
598.026794	1360.761475	17066.406250	1574.660400	1.361924
598.366455	1394.894287	16588.546875	1520.047852	0.823723
598.706116	1310.699951	16342.790039	1533.701050	1.483500
599.045654	1385.792114	15985.533203	1597.415649	1.449502
599.385193	1456.333252	15227.785156	1490.466064	0.247852
599.724731	1388.067749	14843.222656	1565.558350	1.319127
600.064087	1394.894287	14536.027344	1545.078613	1.142857
600.403564	1376.690063	14090.024414	1495.017212	0.930733
600.742920	1372.139038	13928.462891	1540.527588	1.341066
601.082153	1392.618774	13819.238281	1565.558350	1.391686
601.421387	1392.618774	13466.532227	1547.354126	1.281568
601.760620	1442.680176	13389.164063	1547.354126	0.876190
602.099854	1401.720825	13744.145508	1533.701050	1.069322
602.438843	1372.139038	13687.257813	1590.588989	1.773835
602.778015	1312.975464	13755.523438	1597.415649	2.286028
603.117065	1388.067749	14119.606445	1554.180664	1.304736
603.456055	1338.006226	14490.516602	1479.088501	1.072664
603.794983	1326.628662	14881.906250	1563.282837	1.745845
604.133850	1315.250977	15257.367188	1485.915039	1.224090
604.472778	1410.822876	15678.337891	1526.874512	0.813398
604.811584	1403.996338	16065.176758	1520.047852	0.791556
605.150330	1394.894287	16615.853516	1615.619751	1.450142
605.489075	1358.485962	16909.394531	1636.099487	1.785192
605.827698	1369.863525	17100.539063	1581.486938	1.345291
606.166382	1335.730713	16659.087891	1524.598877	1.232551
606.504883	1394.894287	16481.597656	1588.313477	1.282051
606.843445	1297.046875	15851.278320	1529.150024	1.594747
607.181946	1367.588013	15277.846680	1515.496826	1.063307
607.520386	1385.792114	15120.835938	1570.109375	1.341949
607.858826	1383.516602	14372.189453	1576.935913	1.489138
608.197083	1319.802124	14322.127930	1579.211426	1.995099
608.535461	1419.924927	14035.412109	1545.078613	0.992064
608.873718	1385.792114	14124.157227	1438.129150	0.410861
609.211914	1429.027100	14301.648438	1586.037964	1.219727
609.550171	1372.139038	14652.078125	1540.527588	1.267992
609.888245	1363.036987	14759.028320	1604.242188	1.800578
610.226318	1381.241089	15209.581055	1513.221313	0.954418
610.564392	1385.792114	15184.550781	1483.639526	0.709103
610.902344	1372.139038	15289.224609	1590.588989	1.569653
611.240295	1401.720825	15232.335938	1556.456177	1.118789
611.578247	1472.261963	15027.539063	1556.456177	0.621118
611.916138	1410.822876	14695.313477	1522.323364	0.839328
612.253845	1353.934937	14278.892578	1601.966675	1.919014
612.591675	1383.516602	13819.238281	1531.425537	1.189388
612.929382	1333.455200	13566.655273	1572.384888	1.953125
613.267090	1319.802124	13127.479492	1483.639526	1.387550
613.604736	1333.455200	13097.897461	1533.701050	1.702128
613.942261	1372.139038	12940.886719	1517.772339	1.258851
614.279785	1399.445313	12754.293945	1538.252075	1.222445
614.617310	1360.761475	12620.038086	1545.078613	1.637025
614.954712	1376.690063	12610.936523	1510.945801	1.195058
615.292175	1419.924927	12469.853516	1567.833862	1.338551
615.629517	1326.628662	12005.647461	1617.895264	2.727466
615.966797	1303.873413	12503.986328	1504.119263	1.787891
616.304138	1365.312500	12187.689453	1488.190552	1.135407
616.641296	1381.241089	12219.546875	1515.496826	1.238715
616.978516	1369.863525	11971.514648	1497.292725	1.201975
617.315552	1372.139038	12117.148438	1431.302612	0.550614
617.652771	1417.649414	11880.494141	1490.466064	0.695955
617.989685	1474.537476	12283.261719	1454.057739	-0.189474
618.326721	1447.231201	12292.363281	1501.843750	0.503567
618.663696	1390.343262	12076.188477	1499.568237	1.022146
619.000549	1413.098389	12051.158203	1479.088501	0.620321
619.337463	1378.965576	12203.618164	1524.598877	1.345385
619.674194	1376.690063	11837.258789	1447.231201	0.674353
620.010986	1374.414551	11960.137695	1440.404663	0.623388
620.347778	1429.027100	12001.096680	1538.252075	1.033147
620.684387	1367.588013	11969.239258	1576.935913	1.974673
621.020996	1342.557251	11830.432617	1438.129150	0.911261
621.357605	1426.751587	11846.361328	1497.292725	0.677004
621.694214	1397.169800	11834.983398	1492.741699	0.915631
622.030579	1449.506714	11680.248047	1517.772339	0.667260
622.367065	1385.792114	11725.758789	1581.486938	1.892606
622.703430	1454.057739	11568.748047	1570.109375	1.147357
623.039795	1431.302612	11716.656250	1483.639526	0.508849
623.376160	1474.537476	11457.247070	1492.741699	0.182358
623.712402	1374.414551	11400.359375	1556.456177	1.815705
624.048645	1451.782227	11461.797852	1542.803101	0.909298
624.384766	1408.547363	11461.797852	1460.884399	0.520598
624.720886	1390.343262	11525.512695	1488.190552	0.965423
625.057007	1394.894287	11486.829102	1451.782227	0.563697
625.392944	1397.169800	11580.125000	1545.078613	1.452514
625.729004	1388.067749	11680.248047	1469.986450	0.795931
626.064941	1451.782227	11800.850586	1529.150024	0.747582
626.400818	1356.210449	11757.616211	1520.047852	1.575147
626.736633	1372.139038	12203.618164	1531.425537	1.470589
627.072449	1401.720825	12497.160156	1483.639526	0.738310
627.408264	1353.934937	12481.231445	1531.425537	1.595092
627.743896	1426.751587	12670.099609	1551.905151	1.113134
628.079590	1388.067749	12617.762695	1535.976563	1.317122
628.415161	1363.036987	12574.528320	1463.159912	0.893038
628.750793	1401.720825	12242.301758	1481.364014	0.734676
629.086365	1401.720825	12328.771484	1574.660400	1.582674
629.421753	1349.383789	12087.566406	1476.812988	1.186692
629.757263	1406.271851	12060.259766	1495.017212	0.832978
630.092651	1438.129150	11489.104492	1472.261963	0.339597
630.427917	1358.485962	11618.809570	1451.782227	0.909292
630.763184	1438.129150	11318.440430	1545.078613	1.082450
631.098511	1392.618774	11268.378906	1497.292725	1.059908
631.433716	1344.832764	11111.368164	1433.578125	0.908668
631.768799	1394.894287	10990.765625	1490.466064	0.995968
632.103943	1378.965576	10808.723633	1440.404663	0.651545
632.438965	1433.578125	11074.959961	1458.608887	0.259618
632.773987	1376.690063	10824.652344	1454.057739	0.818882
633.109070	1324.353149	10569.793945	1492.741699	1.821315
633.443848	1406.271851	10606.202148	1483.639526	0.840959
633.778870	1417.649414	10551.589844	1485.915039	0.747384
634.113708	1460.884399	10626.682617	1513.221313	0.571002
634.448425	1401.720825	10776.866211	1524.598877	1.310679
634.783264	1392.618774	10617.580078	1520.047852	1.381351
635.117859	1365.312500	10551.589844	1492.741699	1.387169
635.452576	1374.414551	10836.030273	1517.772339	1.515151
635.787170	1388.067749	10424.161133	1501.843750	1.259128
636.121704	1394.894287	10674.467773	1440.404663	0.490436
636.456177	1419.924927	10374.099609	1506.394775	0.965693
636.790588	1424.476074	10173.853516	1492.741699	0.780234
637.125122	1472.261963	10196.608398	1438.129150	-0.391236
637.459412	1408.547363	9937.199219	1497.292725	1.040555
637.793762	1392.618774	9698.269531	1517.772339	1.506848
638.128052	1358.485962	10005.464844	1408.547363	0.578947
638.462280	1315.250977	9853.004883	1460.884399	1.705758
638.796509	1369.863525	9623.177734	1472.261963	1.240695
639.130615	1454.057739	9598.146484	1540.527588	1.061750
639.464722	1356.210449	9566.289063	1422.200562	0.803770
639.798767	1358.485962	9582.217773	1556.456177	2.407304
640.132751	1369.863525	9313.707031	1465.435425	1.203094
640.466736	1367.588013	9420.656250	1438.129150	0.875954
640.800598	1381.241089	9170.348633	1390.343262	0.116858
641.134521	1381.241089	9172.624023	1463.159912	1.051403
641.468262	1394.894287	9261.370117	1529.150024	1.706682
641.802063	1365.312500	9036.092773	1542.803101	2.313853
642.135803	1324.353149	9111.185547	1460.884399	1.753361
642.469421	1422.200562	9111.185547	1431.302612	0.118378
642.803101	1335.730713	8992.858398	1410.822876	0.980683
643.136658	1365.312500	8881.357422	1444.955688	1.059642
643.470215	1319.802124	8915.490234	1435.853638	1.527861
643.803711	1331.179688	8785.786133	1467.710938	1.831502
644.137085	1351.659302	8922.317383	1447.231201	1.262399
644.470581	1374.414551	8785.786133	1467.710938	1.258828
644.803833	1397.169800	8744.826172	1447.231201	0.681325
645.137207	1369.863525	9031.541992	1499.568237	1.692902
645.470459	1310.699951	8701.591797	1394.894287	1.139163
645.803589	1467.710938	8653.805664	1388.067749	-1.108296
646.136780	1301.597900	8678.835938	1458.608887	2.128317
646.469849	1410.822876	8785.786133	1529.150024	1.604444
646.802979	1431.302612	8703.867188	1474.537476	0.594493
647.135986	1417.649414	8742.550781	1449.506714	0.434918
647.468994	1394.894287	8840.398438	1485.915039	1.222493
647.801941	1406.271851	8976.929688	1431.302612	0.330629
648.134766	1376.690063	8669.734375	1458.608887	1.123246
648.467651	1397.169800	8951.898438	1533.701050	1.807229
648.800354	1422.200562	8826.745117	1426.751587	0.061463
649.133179	1351.659302	8744.826172	1483.639526	1.785165
649.465881	1363.036987	8813.091797	1520.047852	2.107513
649.798462	1440.404663	8826.745117	1488.190552	0.646949
650.131104	1415.373901	8772.132813	1472.261963	0.773276
650.463623	1369.863525	8867.704102	1399.445313	0.394537
650.796143	1460.884399	8792.612305	1485.915039	0.341402
651.128662	1397.169800	8826.745117	1433.578125	0.490046
651.461060	1454.057739	8751.653320	1438.129150	-0.218272
651.793396	1381.241089	8885.909180	1501.843750	1.607035
652.125732	1390.343262	8749.377930	1497.292725	1.453308
652.458008	1338.006226	8674.285156	1403.996338	0.899504
652.790222	1403.996338	8765.305664	1440.404663	0.494590
653.122437	1415.373901	8751.653320	1451.782227	0.496278
653.454529	1474.537476	8888.184570	1456.333252	-0.245550
653.786621	1397.169800	8885.909180	1479.088501	1.093892
654.118713	1394.894287	8783.510742	1435.853638	0.554358
654.450623	1365.312500	8710.693359	1474.537476	1.486989
654.782654	1385.792114	8537.753906	1540.527588	2.163539
655.114502	1394.894287	8453.559570	1454.057739	0.838168
655.446350	1408.547363	8439.906250	1472.261963	0.906149
655.778198	1454.057739	8562.785156	1392.618774	-0.864275
656.109863	1403.996338	8417.151367	1449.506714	0.648929
656.441650	1388.067749	8328.406250	1403.996338	0.229507
656.773254	1388.067749	8521.825195	1490.466064	1.435405
657.104919	1353.934937	8273.793945	1438.129150	1.216704
657.436462	1390.343262	8162.292969	1472.261963	1.209677
657.767944	1374.414551	8301.099609	1467.710938	1.346913
658.099548	1390.343262	8544.581055	1449.506714	0.826971
658.430908	1376.690063	8749.377930	1403.996338	0.370371
658.762268	1367.588013	8640.152344	1429.027100	0.844806
659.093628	1328.904175	9172.624023	1508.670288	2.291848
659.424927	1344.832764	9177.175781	1490.466064	1.859384
659.756226	1333.455200	9468.442383	1401.720825	0.839161
660.087341	1378.965576	9575.391602	1449.506714	0.860633
660.418518	1335.730713	9739.229492	1531.425537	2.328730
660.749573	1413.098389	9773.362305	1488.190552	0.898203
661.080627	1383.516602	9761.984375	1513.221313	1.548072
661.411621	1401.720825	9479.819336	1492.741699	1.126761
661.742554	1383.516602	9315.982422	1481.364014	1.233506
662.073547	1374.414551	9054.296875	1597.415649	2.903705
662.404297	1426.751587	8986.031250	1513.221313	1.143888
662.735229	1454.057739	8722.071289	1513.221313	0.814027
663.065979	1399.445313	8672.009766	1520.047852	1.658322
663.396667	1360.761475	8608.294922	1472.261963	1.538461
663.727417	1397.169800	8307.926758	1506.394775	1.580507
664.057922	1353.934937	8094.027344	1522.323364	2.498310
664.388611	1381.241089	8123.609375	1435.853638	0.809991
664.719116	1360.761475	7939.291992	1424.476074	0.968523
665.049622	1312.975464	7925.639160	1572.384888	3.922919
665.380005	1344.832764	7891.506348	1415.373901	1.077511
665.710388	1338.006226	7955.220703	1451.782227	1.719394
666.040771	1381.241089	7641.198730	1426.751587	0.727010
666.371033	1438.129150	7764.077148	1479.088501	0.647482
666.701294	1394.894287	7757.250488	1467.710938	1.144492
667.031555	1415.373901	7750.423828	1433.578125	0.287357
667.361633	1369.863525	7775.454590	1417.649414	0.746003
667.691772	1372.139038	7786.832031	1508.670288	2.128414
668.021790	1374.414551	7798.209961	1467.710938	1.452356
668.351807	1324.353149	7743.597168	1442.680176	1.843317
668.681763	1410.822876	7707.188965	1419.924927	0.144560
669.011719	1435.853638	7725.393066	1435.853638	0.000000
669.341614	1285.669312	7618.443848	1372.139038	1.365432
669.671387	1378.965576	7839.168945	1458.608887	1.232830
670.001221	1406.271851	7714.015625	1554.180664	2.344877
670.330933	1365.312500	7839.168945	1492.741699	1.968366
670.660583	1390.343262	7780.005859	1479.088501	1.388888
670.990173	1331.179688	7627.545898	1451.782227	1.915431
671.319763	1374.414551	7836.893555	1456.333252	1.267605
671.649292	1403.996338	7493.290039	1419.924927	0.261584
671.978821	1292.495850	7545.626953	1417.649414	2.001454
672.308289	1372.139038	7527.422852	1388.067749	0.258781
672.637695	1363.036987	7393.166992	1545.078613	3.018867
672.966980	1328.904175	7409.095703	1419.924927	1.497005
673.296326	1419.924927	7363.585449	1460.884399	0.689129
673.625610	1385.792114	7397.718262	1497.292725	1.854657
673.954773	1403.996338	7293.043945	1415.373901	0.193199
674.283936	1376.690063	7331.728027	1488.190552	1.872372
674.613037	1424.476074	7543.351563	1454.057739	0.483449
674.942078	1353.934937	7349.932129	1447.231201	1.555976
675.271118	1324.353149	7176.992676	1406.271851	1.399688
675.600098	1433.578125	7265.737793	1419.924927	-0.234102
675.928955	1410.822876	7254.360352	1472.261963	1.051402
676.257813	1488.190552	7038.186035	1529.150024	0.738009
676.586670	1394.894287	7227.054199	1495.017212	1.716738
676.915466	1463.159912	7122.379883	1406.271851	-1.005228
677.244141	1433.578125	7140.584473	1388.067749	-0.797447
677.572876	1403.996338	7045.012207	1442.680176	0.685760
677.901489	1388.067749	7222.502930	1433.578125	0.780031
678.230042	1319.802124	7017.706055	1408.547363	1.557507
678.558594	1315.250977	7131.482422	1413.098389	1.682316
678.887085	1403.996338	7133.757813	1406.271851	0.039714
679.215515	1403.996338	7395.442383	1501.843750	1.633118
679.543945	1419.924927	7211.125488	1497.292725	1.335954
679.872253	1433.578125	7436.401855	1467.710938	0.568613
680.200562	1417.649414	7347.656738	1497.292725	1.343056
680.528809	1408.547363	7620.719238	1474.537476	1.062271
680.856995	1351.659302	7748.148438	1458.608887	1.672004
681.185120	1417.649414	7739.046387	1422.200562	0.071996
681.513306	1278.842651	7766.352539	1469.986450	2.946335
681.841309	1324.353149	7723.117676	1442.680176	1.849217
682.169373	1413.098389	7793.658691	1419.924927	0.106990
682.497314	1449.506714	7918.812500	1410.822876	-0.597960
682.825134	1374.414551	7707.188965	1397.169800	0.359325
683.153076	1374.414551	7673.056152	1488.190552	1.806358
683.480896	1399.445313	7399.993652	1408.547363	0.151687
683.808655	1385.792114	7527.422852	1438.129150	0.852168
684.136414	1394.894287	7227.054199	1460.884399	1.131487
684.464050	1413.098389	7297.595215	1435.853638	0.386698
684.791626	1335.730713	7122.379883	1442.680176	1.848211
685.119263	1381.241089	7097.349609	1444.955688	1.114650
685.446838	1378.965576	7031.359375	1435.853638	1.006442
685.774292	1385.792114	6910.756836	1467.710938	1.482703
686.101685	1356.210449	6844.766602	1449.506714	1.699833
686.429077	1388.067749	6872.072754	1383.516602	-0.082989
686.756348	1406.271851	6874.348145	1451.782227	0.832292
687.083679	1399.445313	6799.256348	1497.292725	1.812052
687.410950	1426.751587	6728.714844	1469.986450	0.815450
687.738159	1331.179688	6653.623047	1469.986450	2.607952
688.065308	1444.955688	6778.776367	1451.782227	0.127986
688.392395	1435.853638	6928.960938	1413.098389	-0.414251
688.719421	1440.404663	6712.786133	1390.343262	-0.949503
689.046448	1376.690063	6833.389160	1415.373901	0.708924
689.373413	1383.516602	7017.706055	1504.119263	2.140550
689.700317	1356.210449	6617.214355	1488.190552	2.508649
690.027100	1383.516602	6651.347168	1401.720825	0.345573
690.353943	1342.557251	6553.500000	1392.618774	0.960700
690.680725	1426.751587	6678.653320	1458.608887	0.606586
691.007446	1358.485962	6421.519531	1417.649414	1.168538
691.334106	1344.832764	6412.417480	1422.200562	1.526719
691.660645	1419.924927	6498.887207	1429.027100	0.179213
691.987244	1401.720825	6112.048828	1383.516602	-0.386475
692.313721	1429.027100	6164.385742	1463.159912	0.720807
692.640259	1394.894287	6259.957520	1406.271851	0.233863
692.966675	1360.761475	6121.150879	1422.200562	1.290631
693.293030	1372.139038	6112.048828	1383.516602	0.240038
693.619324	1426.751587	6027.854492	1444.955688	0.395646
693.945618	1399.445313	6014.201660	1333.455200	-1.429980
694.271851	1410.822876	5961.864258	1351.659302	-1.300001
694.598083	1449.506714	6046.058594	1344.832764	-2.277228
694.924194	1390.343262	5930.007324	1415.373901	0.551376
695.250244	1424.476074	5845.812988	1328.904175	-2.161606
695.576294	1408.547363	5945.936035	1435.853638	0.601806
695.902283	1408.547363	6002.823730	1358.485962	-1.089647
696.228210	1408.547363	5995.997070	1467.710938	1.289683
696.554138	1363.036987	5777.547363	1356.210449	-0.154639
696.879944	1378.965576	6068.813965	1433.578125	1.164484
697.205750	1367.588013	6077.916016	1433.578125	1.400966
697.531433	1326.628662	6162.110352	1426.751587	2.070589
697.857178	1413.098389	6046.058594	1397.169800	-0.343810
698.182739	1381.241089	6187.141113	1460.884399	1.657199
698.508423	1378.965576	6496.611816	1497.292725	2.312140
698.833984	1399.445313	6760.572266	1481.364014	1.528013
699.159485	1442.680176	7004.053223	1451.782227	0.163666
699.484924	1338.006226	7138.308594	1504.119263	2.863869
699.810303	1442.680176	7420.473145	1488.190552	0.761324
700.135681	1451.782227	7470.534668	1538.252075	1.436674
700.460999	1331.179688	7493.290039	1424.476074	1.514033
700.786255	1399.445313	7222.502930	1435.853638	0.625244
701.111450	1399.445313	7126.931152	1408.547363	0.158919
701.436646	1397.169800	6892.552734	1413.098389	0.289854
701.761719	1349.383789	6592.183594	1399.445313	0.954862
702.086792	1388.067749	6514.815918	1456.333252	1.331556
702.411865	1294.771362	6287.264160	1372.139038	1.549680
702.736816	1367.588013	6059.711914	1413.098389	0.969931
703.061646	1356.210449	5838.986328	1401.720825	1.015228
703.386536	1406.271851	5804.853516	1442.680176	0.827729
703.711365	1317.526489	5604.607910	1356.210449	0.902338
704.036194	1351.659302	5545.444336	1413.098389	1.465003
704.360901	1385.792114	5604.607910	1367.588013	-0.431498
704.685547	1392.618774	5509.035645	1444.955688	1.271419
705.010132	1422.200562	5365.678223	1510.945801	2.250431
705.334717	1374.414551	5443.045898	1460.884399	2.125281
705.659302	1390.343262	5358.851563	1392.618774	0.057339
705.983765	1401.720825	5094.891113	1419.924927	0.492913
706.308228	1344.832764	5377.055664	1422.200562	1.918738
706.632568	1397.169800	5226.871094	1372.139038	-0.653596
706.956909	1372.139038	5217.769043	1353.934937	-0.473371
707.281189	1424.476074	5365.678223	1315.250977	-2.771365
707.605408	1406.271851	5097.166504	1424.476074	0.493220
707.929626	1331.179688	5201.840332	1399.445313	1.763669
708.253784	1372.139038	5290.585938	1419.924927	1.219511
708.577820	1444.955688	5122.197266	1369.863525	-2.042078
708.901855	1360.761475	5165.432129	1401.720825	1.076554
709.225830	1413.098389	5240.524414	1417.649414	0.118906
709.549805	1381.241089	5301.963379	1392.618774	0.290194
709.873718	1406.271851	5315.616699	1417.649414	0.291035
710.197510	1392.618774	5315.616699	1410.822876	0.464035
710.521362	1392.618774	5461.250000	1451.782227	1.454136
710.845093	1431.302612	5431.667969	1360.761475	-1.763367
711.168701	1429.027100	5299.687988	1438.129150	0.235155
711.492432	1401.720825	5374.780273	1326.628662	-1.890034
711.816040	1435.853638	5515.862305	1435.853638	0.000000
712.139587	1363.036987	5524.964355	1408.547363	1.093493
712.463074	1394.894287	5631.914063	1403.996338	0.214822
712.786499	1481.364014	5700.179688	1476.812988	-0.107874
713.109924	1397.169800	5584.127930	1433.578125	0.869565
713.433350	1390.343262	5529.515625	1403.996338	0.329850
713.756592	1413.098389	5515.862305	1419.924927	0.166389
714.079834	1435.853638	5397.535156	1374.414551	-1.550833
714.403015	1367.588013	5372.504395	1458.608887	2.272728
714.726196	1406.271851	5347.474121	1419.924927	0.346419
715.049255	1290.220337	5324.718750	1417.649414	3.158486
715.372375	1410.822876	5233.697754	1401.720825	-0.238094
715.695435	1419.924927	5213.218262	1365.312500	-1.439710
716.018311	1369.863525	5299.687988	1399.445313	0.752751
716.341248	1381.241089	5238.249023	1388.067749	0.176994
716.664063	1392.618774	5251.901855	1495.017212	2.653302
716.987000	1333.455200	5324.718750	1431.302612	2.451540
717.309692	1363.036987	5099.441895	1372.139038	0.243605
717.632385	1433.578125	5169.983398	1397.169800	-0.974421
717.955078	1328.904175	5281.483887	1501.843750	4.375360
718.277649	1353.934937	5060.758301	1372.139038	0.491097
718.600220	1388.067749	4912.849609	1419.924927	0.903806
718.922791	1319.802124	4985.666016	1413.098389	2.545001
719.245300	1394.894287	4826.379395	1363.036987	-0.928382
719.567688	1413.098389	4944.706543	1406.271851	-0.193298
719.890015	1408.547363	4617.031738	1390.343262	-0.567374
720.212341	1417.649414	4737.634277	1390.343262	-0.822478
720.534607	1406.271851	4653.439941	1419.924927	0.420461
720.856873	1410.822876	4535.112793	1433.578125	0.728333
721.179016	1385.792114	4403.132813	1349.383789	-1.206636
721.501160	1383.516602	4382.652832	1390.343262	0.227621
721.823242	1365.312500	4705.776855	1383.516602	0.544957
722.145264	1342.557251	4432.714355	1399.445313	1.840944
722.467224	1429.027100	4475.949219	1351.659302	-2.539212
722.789185	1312.975464	4403.132813	1356.210449	1.399119
723.111023	1365.312500	4271.152344	1406.271851	1.409553
723.432861	1353.934937	4303.009766	1383.516602	1.003083
723.754578	1374.414551	4357.622559	1338.006226	-1.220442
724.076294	1338.006226	4339.417969	1399.445313	2.047006
724.397949	1367.588013	4359.897949	1410.822876	1.444866
724.719666	1399.445313	4277.979004	1385.792114	-0.474311
725.041260	1388.067749	4207.437988	1458.608887	2.502018
725.362732	1367.588013	4366.724609	1474.537476	3.566008
725.684265	1392.618774	4246.121582	1522.323364	4.545452
726.005676	1444.955688	4328.040527	1403.996338	-1.420678
726.327087	1403.996338	4262.050293	1369.863525	-1.194268
726.648438	1394.894287	4328.040527	1465.435425	2.404965
726.969666	1465.435425	4380.377441	1472.261963	0.234191
727.290894	1415.373901	4316.663086	1467.710938	1.803923
727.612061	1408.547363	4305.285156	1372.139038	-1.256873
727.933228	1349.383789	4471.398438	1433.578125	2.696795
728.254395	1378.965576	4544.214844	1383.516602	0.143781
728.575378	1451.782227	4626.133789	1488.190552	1.146953
728.896301	1306.148926	4466.847168	1463.159912	4.967605
729.217285	1340.281738	4592.000977	1476.812988	4.198740
729.538147	1365.312500	4687.572754	1424.476074	1.780823
729.858948	1351.659302	4564.694824	1431.302612	2.478756
730.179810	1301.597900	4630.685059	1417.649414	3.485986
730.500549	1385.792114	4621.582520	1460.884399	2.320678
730.821228	1360.761475	4453.194336	1424.476074	2.060339
731.141846	1360.761475	4598.827637	1483.639526	3.794797
731.462402	1372.139038	4526.010742	1447.231201	2.380952
731.782898	1410.822876	4610.205078	1381.241089	-0.924609
732.103455	1431.302612	4537.388672	1419.924927	-0.366303
732.423889	1449.506714	4778.593750	1372.139038	-2.323991
732.744263	1376.690063	4617.031738	1401.720825	0.772473
733.064636	1410.822876	4612.480469	1410.822876	0.000000
733.384888	1344.832764	4541.939453	1442.680176	3.060499
733.705200	1499.568237	4623.858398	1429.027100	-2.257829
734.025330	1340.281738	4774.042480	1401.720825	1.789265
734.345520	1367.588013	4664.817871	1435.853638	2.070393
734.665527	1369.863525	4596.552246	1426.751587	1.763048
734.985596	1456.333252	4541.939453	1449.506714	-0.221238
735.305542	1356.210449	4412.234863	1381.241089	0.819059
735.625549	1403.996338	4503.255859	1444.955688	1.321585
735.945435	1447.231201	4227.917480	1456.333252	0.327331
736.265259	1356.210449	4371.275391	1413.098389	1.886790
736.585083	1344.832764	4139.172363	1385.792114	1.465797
736.904785	1413.098389	4150.549805	1351.659302	-2.244390
737.224426	1367.588013	4230.193359	1517.772339	5.246421
737.544128	1342.557251	4118.692871	1435.853638	3.360656
737.863708	1406.271851	4152.825684	1399.445313	-0.248549
738.183289	1369.863525	4141.447754	1476.812988	3.858784
738.502808	1383.516602	4157.376465	1413.098389	1.066448
738.822205	1388.067749	4248.397461	1413.098389	0.875096
739.141541	1388.067749	4239.295410	1406.271851	0.638465
739.460938	1388.067749	4218.815430	1444.955688	2.009644
739.780212	1383.516602	4293.907715	1472.261963	3.049259
740.099426	1369.863525	4469.123047	1458.608887	2.863438
740.418640	1365.312500	4246.121582	1545.078613	6.240126
740.737793	1442.680176	4289.356934	1490.466064	1.678655
741.056885	1401.720825	4227.917480	1508.670288	3.784219
741.375977	1294.771362	4196.060547	1447.231201	5.254900
741.694946	1326.628662	4177.855957	1524.598877	6.943333
742.013855	1374.414551	4111.866211	1465.435425	3.325022
742.332703	1383.516602	4125.519043	1476.812988	3.402491
742.651550	1415.373901	4034.498291	1467.710938	1.998265
742.970398	1378.965576	4054.978027	1506.394775	4.761906
743.289124	1385.792114	4136.896973	1394.894287	0.330855
743.607788	1460.884399	3943.477539	1542.803101	3.299723
743.926453	1392.618774	4004.916504	1558.731689	6.358881
744.245056	1399.445313	3959.406250	1463.159912	2.488889
744.563599	1447.231201	3829.701416	1447.231201	0.000000
744.882141	1367.588013	3913.895752	1417.649414	1.966039
745.200500	1403.996338	3845.630127	1424.476074	0.838772
745.518860	1419.924927	3941.202148	1495.017212	2.978343
745.837219	1394.894287	3843.354736	1433.578125	1.579925
746.155518	1363.036987	3750.058350	1431.302612	2.859866
746.473755	1458.608887	3786.466553	1444.955688	-0.586513
746.791992	1358.485962	3863.834229	1456.333252	3.905537
747.110107	1399.445313	3820.599365	1497.292725	4.041354
747.428162	1363.036987	3770.538086	1517.772339	6.427218
747.746216	1328.904175	3763.711426	1483.639526	6.355138
748.064148	1317.526489	3718.200928	1497.292725	7.488156
748.382080	1406.271851	3822.875000	1522.323364	4.802258
748.700073	1440.404663	3825.150391	1485.915039	1.908395
749.017822	1358.485962	3761.435791	1467.710938	4.545454
749.335632	1403.996338	3761.435791	1458.608887	2.316605
749.653320	1349.383789	3872.936523	1492.741699	5.680797
749.971008	1376.690063	3909.344727	1535.976563	6.289310
750.288696	1510.945801	3847.905762	1499.568237	-0.486853
750.606262	1422.200562	3845.630127	1556.456177	5.539901
750.923828	1363.036987	3697.721191	1549.629639	7.992201
751.241272	1388.067749	3850.181152	1499.568237	4.528650
751.558716	1469.986450	3786.466553	1488.190552	0.785852
751.876038	1460.884399	3775.089111	1506.394775	1.966567
752.193481	1399.445313	3756.884766	1558.731689	6.756753
752.510681	1363.036987	3731.854004	1458.608887	4.034584
752.827942	1351.659302	3725.027588	1515.496826	6.903165
753.145081	1388.067749	3779.640137	1520.047852	5.518549
753.462219	1388.067749	3702.272461	1645.201538	11.111109
753.779297	1338.006226	3802.395264	1561.007324	9.048940
754.096375	1392.618774	3759.160400	1567.833862	7.403846
754.413330	1392.618774	3634.006836	1531.425537	6.192893
754.730286	1353.934937	3706.823486	1611.068726	10.928430
755.047119	1372.139038	3636.282227	1549.629639	7.839195
755.363892	1367.588013	3759.160400	1565.558350	8.277832
755.680725	1406.271851	3636.282227	1599.691162	8.673471
755.997498	1363.036987	3661.312988	1572.384888	9.108911
756.314148	1363.036987	3734.129639	1565.558350	8.541266
756.630737	1419.924927	3599.874023	1606.517700	8.559501
756.947327	1376.690063	3588.496338	1611.068726	10.596709
757.263855	1365.312500	3740.956299	1654.303589	12.164748
757.580261	1356.210449	3568.016602	1599.691162	11.008230
757.896729	1401.720825	3672.690674	1599.691162	8.717436
758.213074	1367.588013	3608.976074	1608.793213	10.761420
758.529419	1338.006226	3597.598389	1608.793213	11.983887
758.845642	1415.373901	3704.547852	1556.456177	6.163022
759.161865	1335.730713	3690.894775	1638.375000	12.850243
759.478149	1356.210449	3720.476563	1615.619751	10.972086
759.794189	1440.404663	3845.630127	1633.823975	8.041629
760.110229	1353.934937	3740.956299	1729.395752	15.729260
760.426270	1431.302612	3756.884766	1645.201538	9.197651
760.742249	1447.231201	3822.875000	1756.702026	13.026819
761.058105	1394.894287	3765.986816	1711.191650	13.339731
761.374023	1410.822876	3743.231689	1731.671387	13.756102
761.689819	1488.190552	3759.160400	1758.977539	11.923848
762.005554	1408.547363	3786.466553	1690.711914	11.866028
762.321289	1456.333252	3877.487549	1770.355225	12.969928
762.636902	1433.578125	3888.864990	1663.405762	9.360520
762.952515	1397.169800	3763.711426	1747.599976	14.807692
763.268127	1360.761475	3886.589600	1774.906250	16.396397
763.583618	1388.067749	3929.824463	1845.447388	17.994627
763.899048	1401.720825	4186.958496	1918.264038	18.545750
764.214478	1481.364014	4505.531250	1954.672363	15.650866
764.529785	1413.098389	5042.554199	2091.203613	18.683386
764.845093	1369.863525	5192.738281	2091.203613	18.869049
765.160400	1326.628662	5144.952637	2179.948975	22.348034
765.475586	1376.690063	5049.380859	2093.479248	19.516731
765.790771	1381.241089	4910.573730	2116.234375	20.825277
766.105835	1394.894287	4799.073242	2059.346436	19.518721
766.420837	1319.802124	4539.664063	2045.693237	22.544170
766.735840	1392.618774	4380.377441	2075.274902	22.848434
767.050842	1381.241089	4339.417969	1952.396851	19.307695
767.365662	1440.404663	4064.080078	1984.254150	20.728537
767.680542	1331.179688	4141.447754	1941.019287	21.700407
767.995300	1399.445313	3811.497314	1884.131226	20.094339
768.309998	1417.649414	3834.252441	1875.029175	18.926558
768.624817	1431.302612	3836.528076	1856.824951	17.691578
768.939392	1358.485962	3743.231689	1913.713013	23.282444
769.254028	1360.761475	3709.098877	1893.233276	22.674416
769.568481	1406.271851	3722.751953	1815.865601	17.681730
769.882935	1347.108276	3636.282227	1843.171875	21.669983
770.197388	1408.547363	3659.037354	1895.508789	21.638018
770.511841	1381.241089	3542.985840	1893.233276	23.684212
770.826172	1344.832764	3602.149414	1870.478149	23.286293
771.140442	1369.863525	3572.567627	1836.345337	21.177689
771.454651	1349.383789	3476.995850	1897.784302	25.775400
771.768860	1372.139038	3451.965088	1886.406738	24.726475
772.082886	1394.894287	3388.250488	1906.886475	25.684933
772.397034	1374.414551	3388.250488	1909.161987	26.553675
772.711060	1347.108276	3454.240479	1813.590088	22.138231
773.025024	1426.751587	3304.056152	1856.824951	22.909088
773.338928	1433.578125	3267.647949	1788.559326	19.354836
773.652771	1390.343262	3329.086914	1756.702026	18.896709
773.966614	1378.965576	3319.984863	1897.784302	26.729189
774.280457	1326.628662	3374.597412	1941.019287	30.000000
774.594116	1388.067749	3376.872803	1893.233276	25.400455
774.907776	1440.404663	3315.433838	1795.385864	18.932035
775.221375	1406.271851	3288.127441	1875.029175	24.909315
775.534912	1399.445313	3181.177979	1758.977539	20.178797
775.848450	1410.822876	3379.148438	1799.937012	19.768789
776.161926	1356.210449	3279.025391	1784.008301	22.248520
776.475342	1353.934937	3190.280273	1770.355225	22.676579
776.788696	1353.934937	3201.657715	1818.141113	25.123150
777.101990	1376.690063	3137.943115	1811.314575	24.677006
777.415283	1390.343262	3181.177979	1852.273926	25.794153
777.728516	1431.302612	3222.137451	1881.855713	25.158831
778.041626	1374.414551	3242.617188	1890.957764	27.649206
778.354736	1335.730713	3133.392090	1877.304688	30.126585
778.667725	1344.832764	3144.769775	1827.243164	26.801516
778.980774	1353.934937	3190.280273	1843.171875	26.641880
779.293640	1460.884399	3144.769775	1881.855713	24.999998
779.606567	1433.578125	3124.290039	1886.406738	26.783310
779.919434	1347.108276	3137.943115	1859.100464	28.589582
780.232239	1449.506714	3065.126465	1893.233276	27.464790
780.544983	1335.730713	3099.259277	1941.019287	34.322582
780.857666	1429.027100	3147.045166	1950.121338	30.331127
781.170227	1367.588013	3092.432861	1868.202637	29.023748
781.482849	1438.129150	3081.055176	1831.794189	23.961216
781.795410	1419.924927	3160.698486	1909.161987	28.104578
782.107910	1333.455200	3015.064941	1829.518677	29.499323
782.420288	1294.771362	3099.259277	1950.121338	36.317780
782.732666	1376.690063	3201.657715	1852.273926	26.059851
783.044983	1469.986450	3056.024414	1799.937012	20.803446
783.357300	1367.588013	3024.167236	1847.722900	28.983515
783.669495	1408.547363	3003.687500	1877.304688	29.386593
783.981689	1394.894287	2974.105713	1768.079712	23.631124
784.293762	1358.485962	2958.177002	1774.906250	26.031294
784.605835	1358.485962	2894.462402	1827.243164	30.518515
784.917908	1351.659302	2969.554688	1811.314575	28.410692
785.229858	1394.894287	2844.401123	1790.834839	27.315535
785.541748	1458.608887	2930.870850	1824.967651	24.884075
785.853577	1376.690063	2826.196777	1811.314575	29.984304
786.165405	1485.915039	2878.533936	1843.171875	25.653597
786.477173	1385.792114	2917.217773	1852.273926	30.460625
786.788879	1408.547363	2835.298828	1856.824951	31.419458
787.100525	1438.129150	2842.125488	1756.702026	22.690435
787.412109	1378.965576	2798.890625	1779.457275	28.205130
787.723694	1369.863525	2846.676514	1772.630737	27.272730
788.035156	1451.782227	2883.084961	1849.998413	27.821939
788.346558	1451.782227	2903.564453	1820.416626	25.391851
788.658081	1383.516602	2844.401123	1781.732788	27.258568
788.969360	1408.547363	2971.830078	1890.957764	30.858807
789.280640	1392.618774	3001.411865	1838.620850	27.722775
789.591919	1424.476074	3185.729004	1986.529663	31.912146
789.903076	1413.098389	3026.442627	1886.406738	29.337095
790.214172	1353.934937	3137.943115	1927.366089	32.142853
790.525269	1363.036987	3056.024414	1872.753662	30.107529
790.836365	1292.495850	2983.207764	1936.468262	38.088833
791.147339	1410.822876	2942.248291	1856.824951	29.123329
791.458191	1392.618774	2949.074951	1772.630737	24.415205
791.769104	1415.373901	2962.728027	1827.243164	26.617647
792.079895	1426.751587	2864.880615	1838.620850	28.639242
792.390686	1392.618774	2846.676514	1756.702026	25.039120
792.701416	1365.312500	2782.961914	1797.661377	30.497587
793.012085	1424.476074	2728.349365	1818.141113	30.191971
793.322693	1408.547363	2742.002686	1804.488037	29.692833
793.633240	1383.516602	2701.043213	1799.937012	31.606224
793.943787	1390.343262	2669.185791	1781.732788	30.604982
794.254272	1415.373901	2653.257324	1752.151001	27.205881
794.564636	1451.782227	2712.420898	1772.630737	25.451267
794.875000	1440.404663	2753.380127	1727.120239	21.837086
795.185303	1392.618774	2694.216553	1795.385864	30.944052
795.495544	1358.485962	2723.798340	1843.171875	35.500000
795.805786	1444.955688	2703.318604	1843.171875	31.645575
796.115906	1353.934937	2735.176025	1754.426514	28.995052
796.426025	1374.414551	2653.257324	1758.977539	30.071171
796.736023	1363.036987	2762.482178	1786.283813	30.243902
797.045959	1394.894287	2828.472412	1827.243164	30.158724
797.355896	1390.343262	2896.738037	1859.100464	31.117819
797.665833	1401.720825	2835.298828	1827.243164	29.682539
797.975708	1417.649414	2901.289063	1875.029175	30.828224
798.285461	1463.159912	2807.992676	1840.896362	28.087986
798.595154	1406.271851	2762.482178	1722.569214	23.322147
798.904846	1378.965576	2778.410889	1879.580200	35.772362
799.214478	1508.670288	2739.727051	1809.039063	24.399263
799.524109	1331.179688	2755.655762	1809.039063	33.546326
799.833557	1413.098389	2812.543701	1756.702026	24.552845
800.143005	1374.414551	2807.992676	1706.640625	23.174606
800.452393	1399.445313	2632.777588	1784.008301	31.180809
800.761780	1349.383789	2610.022461	1724.844727	29.783390
801.071106	1385.792114	2782.961914	1795.385864	29.315960
801.380371	1322.077637	2653.257324	1704.365112	28.717947
801.689575	1383.516602	2628.226563	1708.916138	26.142599
801.998718	1451.782227	2612.297852	1738.497925	24.705889
802.307800	1406.271851	2635.052979	1740.773438	27.222227
802.616882	1381.241089	2655.532715	1763.528564	29.999998
802.925903	1349.383789	2632.777588	1754.426514	31.560284
803.234863	1422.200562	2632.777588	1718.018188	24.436085
803.543701	1401.720825	2434.807373	1768.079712	35.462555
803.852539	1383.516602	2655.532715	1704.365112	25.223619
804.161316	1417.649414	2685.114502	1718.018188	23.698387
804.470032	1374.414551	2594.093750	1790.834839	34.141788
804.778809	1403.996338	2632.777588	1729.395752	26.481476
805.087341	1308.424438	2594.093750	1815.865601	39.469025
805.395935	1367.588013	2523.552490	1711.191650	29.724411
805.704468	1392.618774	2503.072998	1758.977539	32.991795
806.012939	1426.751587	2589.542725	1772.630737	29.745596
806.321350	1417.649414	2603.195801	1688.436401	22.840691
806.629761	1399.445313	2539.481201	1743.048950	30.139721
806.938049	1303.873413	2639.604248	1781.732788	35.775124
807.246277	1442.680176	2696.492188	1822.692139	30.308527
807.554504	1342.557251	2669.185791	1729.395752	29.159519
807.862671	1401.720825	2698.767578	1820.416626	32.280701
808.170715	1360.761475	2605.471436	1752.151001	31.444235
808.478821	1406.271851	2625.950928	1672.507813	21.828362
808.786804	1397.169800	2539.481201	1784.008301	33.864540
809.094727	1392.618774	2564.511963	1692.987427	25.631060
809.402649	1369.863525	2514.450439	1670.232300	26.242548
809.710510	1429.027100	2530.379150	1713.467163	25.826443
810.018311	1333.455200	2464.388916	1711.191650	33.400406
810.326050	1442.680176	2550.858887	1681.609863	21.560574
810.633667	1390.343262	2584.991699	1692.987427	25.333324
810.941345	1388.067749	2516.726074	1754.426514	32.459671
811.248901	1374.414551	2373.368164	1658.854614	28.473801
811.556396	1476.812988	2407.500977	1740.773438	28.361862
811.863892	1385.792114	2396.123291	1649.752563	26.126131
812.171326	1378.965576	2466.664551	1718.018188	31.171549
812.478699	1383.516602	2291.449463	1624.721802	26.566414
812.786011	1385.792114	2380.194824	1702.089600	31.807785
813.093262	1397.169800	2475.766602	1729.395752	30.801682
813.400391	1312.975464	2400.674561	1663.405762	32.217579
813.707642	1324.353149	2382.470215	1738.497925	39.139790
814.014709	1349.383789	2393.847900	1708.916138	34.422661
814.321716	1422.200562	2448.460449	1620.170776	19.290457
814.628723	1406.271851	2361.990479	1642.926025	24.761909
814.935669	1310.699951	2375.643799	1647.477051	31.623930
815.242554	1442.680176	2434.807373	1711.191650	27.064219
815.549438	1392.618774	2396.123291	1663.405762	26.984133
815.856201	1413.098389	2357.439453	1708.916138	31.325308
816.162964	1433.578125	2373.368164	1615.619751	19.370457
816.469604	1415.373901	2407.500977	1599.691162	18.577990
816.776184	1385.792114	2427.980713	1613.344238	21.834064
817.082825	1369.863525	2425.705078	1608.793213	22.629313
817.389343	1397.169800	2416.603027	1706.640625	30.357145
817.695801	1383.516602	2384.745850	1681.609863	29.772728
818.002197	1376.690063	2364.266113	1608.793213	23.502306
818.308533	1374.414551	2368.817139	1606.517700	23.340963
818.614868	1351.659302	2380.194824	1645.201538	28.539825
818.921143	1392.618774	2450.735840	1640.650513	23.440861
819.227356	1358.485962	2364.266113	1763.528564	40.271484
819.533447	1369.863525	2425.705078	1697.538574	31.034491
819.839539	1394.894287	2443.909424	1697.538574	28.850327
820.145569	1340.281738	2564.511963	1686.160889	28.252787
820.451538	1422.200562	2580.440674	1756.702026	28.880148
820.757568	1394.894287	2742.002686	1727.120239	24.662155
821.063416	1467.710938	2817.094727	1770.355225	22.428333
821.369263	1406.271851	3019.616211	1836.345337	26.657265
821.675049	1426.751587	3069.677490	1895.508789	28.531853
821.980713	1347.108276	3128.841064	2011.560425	37.292469
822.286438	1383.516602	3285.852051	2093.479248	37.320580
822.592102	1340.281738	3816.048340	2198.153076	34.650734
822.897583	1367.588013	4931.053711	2714.696289	37.803318
823.203125	1415.373901	7145.135254	3358.668701	33.915806
823.508545	1474.537476	9388.798828	4114.141602	33.352501
823.813965	1367.588013	10603.926758	4380.377441	32.618874
824.119263	1454.057739	10378.650391	4498.704590	34.115250
824.424622	1488.190552	9006.511719	3918.446777	32.324455
824.729858	1383.516602	7552.453613	3458.791504	33.640720
825.035095	1344.832764	6589.908203	3208.484375	35.531456
825.340149	1374.414551	5939.109375	2912.666504	33.698898
825.645264	1369.863525	5311.065430	2687.390137	33.429565
825.950256	1394.894287	4956.084473	2489.419678	30.734819
826.255310	1347.108276	4553.316895	2402.949951	32.931160
826.560242	1347.108276	4321.213867	2352.888428	33.817905
826.865112	1340.281738	4091.386475	2230.010498	32.340782
827.169922	1415.373901	3884.313965	2252.765625	33.917057
827.474670	1374.414551	3841.079102	2182.224365	32.749073
827.779419	1419.924927	4191.509277	2314.204590	32.266006
828.084045	1358.485962	4776.318359	2498.521729	33.355518
828.388672	1406.271851	5267.830566	2630.501953	31.703005
828.693176	1447.231201	5438.494629	2669.185791	30.615734
828.997681	1360.761475	5129.023926	2566.787354	32.004826
829.302124	1319.802124	4573.796875	2393.847900	33.006992
829.606567	1403.996338	4111.866211	2245.938965	31.092434
829.910828	1401.720825	3706.823486	2061.621826	28.627836
830.215149	1369.863525	3513.404053	2052.519775	31.847136
830.519348	1385.792114	3260.821289	1941.019287	29.611654
830.823547	1353.934937	3099.259277	1956.947876	34.550194
831.127686	1372.139038	2926.319824	1906.886475	34.407028
831.431763	1394.894287	2885.360352	1890.957764	33.282440
831.735779	1365.312500	2726.073975	1754.426514	28.595314
832.039734	1358.485962	2641.879639	1863.651489	39.361698
832.343628	1378.965576	2525.828125	1708.916138	28.769844
832.647461	1278.842651	2562.236328	1845.447388	44.148941
832.951233	1374.414551	2507.624023	1667.956787	25.903616
833.255127	1383.516602	2484.868652	1736.222412	32.024803
833.558777	1415.373901	2482.593262	1704.365112	27.078896
833.862366	1406.271851	2516.726074	1697.538574	26.229511
834.165955	1342.557251	2732.900391	1795.385864	32.569557
834.469482	1365.312500	3160.698486	1970.601074	33.713562
834.773010	1369.863525	3417.832275	2111.683350	36.222225
835.076416	1403.996338	3768.262451	2243.663574	35.514919
835.379822	1399.445313	3879.762939	2129.887451	29.449541
835.683105	1376.690063	3804.670898	2018.386963	26.429239
835.986389	1388.067749	3442.863037	2041.142212	31.782944
836.289612	1374.414551	3192.555664	1954.672363	31.914894
836.592773	1394.894287	3005.962891	1902.335449	31.497179
836.895874	1363.036987	2908.115479	1875.029175	33.136971
837.198914	1390.343262	2853.503174	1756.702026	25.038874
837.501892	1338.006226	2703.318604	1849.998413	37.500004
837.804871	1442.680176	2562.236328	1761.253052	28.455284
838.107666	1353.934937	2528.103516	1772.630737	35.658916
838.410583	1363.036987	2468.940186	1695.262939	30.041142
838.713379	1347.108276	2382.470215	1729.395752	36.923077
839.016052	1397.169800	2259.592041	1597.415649	23.219004
839.318787	1378.965576	2234.561523	1595.140137	25.265965
839.621338	1381.241089	2230.010498	1608.793213	26.809652
839.923889	1419.924927	2316.480225	1615.619751	21.827414
840.226440	1385.792114	2191.326416	1542.803101	19.491533
840.528931	1369.863525	2245.938965	1642.926025	31.168835
840.831299	1356.210449	2352.888428	1649.752563	29.452051
841.133606	1369.863525	2336.959961	1620.170776	25.882347
841.435913	1413.098389	2407.500977	1629.272949	21.739140
841.738220	1376.690063	2409.776611	1611.068726	22.687223
842.040405	1333.455200	2323.306641	1570.109375	23.908051
842.342529	1422.200562	2255.041016	1652.028076	27.595623
842.644592	1369.863525	2284.622803	1613.344238	26.616917
842.946594	1397.169800	2209.530762	1563.282837	20.448181
843.248596	1406.271851	2084.376953	1574.660400	24.832220
843.550598	1374.414551	2118.509766	1547.354126	23.241592
843.852478	1392.618774	2020.662476	1601.966675	33.333332
844.154236	1408.547363	2057.070801	1538.252075	20.000004
844.455994	1324.353149	2027.489014	1460.884399	19.417479
844.757690	1378.965576	1959.223389	1517.772339	23.921568
845.059326	1383.516602	2045.693237	1592.864502	31.615114
845.360962	1356.210449	1952.396851	1533.701050	29.770990
845.662476	1367.588013	1881.855713	1481.364014	22.123886
845.963989	1465.435425	1950.121338	1485.915039	4.225337
846.265381	1365.312500	1904.610962	1483.639526	21.940916
846.566772	1397.169800	2032.040039	1538.252075	22.222221
846.868042	1369.863525	1909.161987	1513.221313	26.582273
847.169373	1385.792114	1991.080688	1419.924927	5.639097
847.470581	1369.863525	1918.264038	1456.333252	15.767623
847.771729	1413.098389	1881.855713	1506.394775	19.902918
848.072815	1388.067749	1827.243164	1474.537476	19.689110
848.373901	1353.934937	1863.651489	1529.150024	34.375004
848.674866	1374.414551	1811.314575	1545.078613	39.062496
848.975891	1367.588013	1972.876587	1422.200562	9.022564
849.276794	1483.639526	1897.784302	1440.404663	-10.439553
849.577637	1376.690063	1906.886475	1460.884399	15.879839
849.878357	1367.588013	1870.478149	1440.404663	14.479634
850.179077	1351.659302	1802.212524	1458.608887	23.737392
850.479736	1381.241089	1884.131226	1419.924927	7.692304
850.780396	1397.169800	1820.416626	1456.333252	13.978475
851.080994	1369.863525	1897.784302	1431.302612	11.637937
851.381470	1390.343262	1856.824951	1495.017212	22.439026
851.681946	1356.210449	1886.406738	1456.333252	18.884102
851.982361	1312.975464	1802.212524	1438.129150	25.581400
852.282715	1394.894287	1824.967651	1424.476074	6.878312
852.583008	1381.241089	1845.447388	1508.670288	27.450985
852.883240	1374.414551	1872.753662	1433.578125	11.872151
853.183411	1390.343262	1758.977539	1472.261963	22.222216
853.483521	1335.730713	1797.661377	1378.965576	9.359600
853.783630	1351.659302	1847.722900	1381.241089	5.963305
854.083679	1383.516602	1738.497925	1438.129150	15.384626
854.383667	1401.720825	1811.314575	1490.466064	21.666649
854.683533	1442.680176	1843.171875	1529.150024	21.590921
854.983337	1422.200562	1793.110352	1481.364014	15.950901
855.283203	1367.588013	1795.385864	1406.271851	9.042551
855.582886	1347.108276	1781.732788	1442.680176	21.989532
855.882629	1360.761475	1738.497925	1429.027100	18.072290
856.182312	1344.832764	1834.069824	1440.404663	19.534885
856.481873	1324.353149	1774.906250	1504.119263	39.898983
856.781372	1324.353149	1863.651489	1390.343262	12.236291
857.080872	1376.690063	1824.967651	1490.466064	25.380703
857.380310	1328.904175	1811.314575	1497.292725	34.905663
857.679688	1397.169800	1824.967651	1522.323364	29.255304
857.979004	1349.383789	1729.395752	1433.578125	22.155706
858.278259	1397.169800	1743.048950	1429.027100	9.210529
858.577454	1426.751587	1749.875488	1465.435425	11.971828
858.876648	1385.792114	1777.181763	1463.159912	19.767462
859.175720	1403.996338	1779.457275	1472.261963	18.181818
859.474792	1426.751587	1809.039063	1467.710938	10.714280
859.773743	1413.098389	1849.998413	1451.782227	8.854162
860.072693	1363.036987	1774.906250	1447.231201	20.441975
860.371521	1413.098389	1733.946899	1417.649414	1.418434
860.670349	1378.965576	1777.181763	1431.302612	13.142870
860.969116	1429.027100	1768.079712	1410.822876	-5.369144
861.267883	1413.098389	1752.151001	1378.965576	-10.067114
861.566589	1403.996338	1875.029175	1422.200562	3.864746
861.865112	1390.343262	1761.253052	1433.578125	11.656436
862.163635	1363.036987	1781.732788	1403.996338	9.782603
862.462158	1363.036987	1815.865601	1360.761475	-0.502511
862.760620	1367.588013	1815.865601	1440.404663	16.243652
863.059021	1415.373901	1758.977539	1479.088501	18.543051
863.357361	1401.720825	1743.048950	1438.129150	10.666664
863.655640	1356.210449	1797.661377	1495.017212	31.443306
863.953857	1399.445313	1695.262939	1447.231201	16.153833
864.251953	1390.343262	1763.528564	1474.537476	22.560966
864.550110	1372.139038	1718.018188	1392.618774	5.921067
864.848206	1408.547363	1752.151001	1403.996338	-1.324499
865.146179	1410.822876	1743.048950	1401.720825	-2.739716
865.444092	1338.006226	1820.416626	1378.965576	8.490561
865.741943	1408.547363	1799.937012	1429.027100	5.232570
866.039795	1342.557251	1754.426514	1401.720825	14.364649
866.337646	1374.414551	1758.977539	1401.720825	7.100599
866.635376	1308.424438	1790.834839	1463.159912	32.075485
866.933044	1385.792114	1804.488037	1433.578125	11.413058
867.230652	1328.904175	1809.039063	1429.027100	20.853083
867.528198	1392.618774	1793.110352	1335.730713	-14.204558
867.825745	1310.699951	1713.467163	1472.261963	40.112999
868.123230	1390.343262	1843.171875	1326.628662	-14.070356
868.420593	1449.506714	1799.937012	1397.169800	-14.935042
868.717896	1399.445313	1768.079712	1424.476074	6.790132
869.015198	1381.241089	1724.844727	1483.639526	29.801325
869.312439	1469.986450	1765.804199	1497.292725	9.230776
869.609619	1392.618774	1729.395752	1385.792114	-2.027057
869.906738	1408.547363	1790.834839	1504.119263	25.000008
870.203796	1367.588013	1754.426514	1463.159912	24.705891
870.500854	1403.996338	1815.865601	1392.618774	-2.762421
870.797791	1356.210449	1699.814087	1367.588013	3.311247
871.094666	1385.792114	1695.262939	1349.383789	-11.764704
871.391602	1431.302612	1797.661377	1481.364014	13.664584
871.688293	1435.853638	1642.926025	1454.057739	8.791178
871.985107	1340.281738	1784.008301	1447.231201	24.102560
872.281738	1287.944824	1765.804199	1367.588013	16.666658
872.578369	1381.241089	1772.630737	1444.955688	16.279072
872.874939	1392.618774	1790.834839	1444.955688	13.142843
873.171509	1374.414551	1820.416626	1504.119263	29.081638
873.467957	1367.588013	1699.814087	1378.965576	3.424645
873.764343	1349.383789	1761.253052	1431.302612	19.889521
874.060669	1447.231201	1763.528564	1463.159912	5.035992
874.356995	1438.129150	1768.079712	1426.751587	-3.448263
874.653198	1413.098389	1831.794189	1474.537476	14.673920
874.949463	1363.036987	1818.141113	1408.547363	9.999992
875.245544	1385.792114	1754.426514	1447.231201	16.666672
875.541626	1388.067749	1736.222412	1415.373901	7.843110
875.837646	1331.179688	1799.937012	1415.373901	17.961151
876.133606	1401.720825	1774.906250	1365.312500	-9.756095
876.429565	1399.445313	1731.671387	1435.853638	10.958900
876.725403	1328.904175	1772.630737	1413.098389	18.974346
877.021179	1363.036987	1790.834839	1426.751587	14.893623
877.316956	1338.006226	1708.916138	1433.578125	25.766876
877.612610	1424.476074	1679.334351	1417.649414	-2.678610
877.908203	1415.373901	1670.232300	1399.445313	-6.249976
878.203857	1358.485962	1702.089600	1399.445313	11.920523
878.499390	1356.210449	1813.590088	1410.822876	11.940284
878.794800	1419.924927	1786.283813	1435.853638	4.347844
879.090271	1340.281738	1799.937012	1401.720825	13.366340
879.385559	1365.312500	1824.967651	1403.996338	8.415839
879.680847	1422.200562	1795.385864	1440.404663	4.878033
879.976196	1319.802124	1852.273926	1472.261963	28.632471
880.271301	1403.996338	1890.957764	1447.231201	8.878499
880.566467	1363.036987	1961.498901	1495.017212	22.053238
880.861572	1451.782227	1981.978638	1499.568237	9.012888
881.156555	1324.353149	2066.172852	1504.119263	24.233128
881.451477	1408.547363	2264.143311	1654.303589	28.723398
881.746460	1438.129150	2528.103516	1758.977539	29.436325
882.041321	1444.955688	3135.667725	1959.223389	30.417227
882.336121	1358.485962	4016.294189	2143.540527	29.537668
882.630798	1449.506714	4728.532227	2316.480225	26.439976
882.925537	1403.996338	5001.594727	2423.429688	28.336496
883.220215	1426.751587	4869.614746	2355.164063	26.966290
883.514771	1308.424438	4548.766113	2282.347412	30.056181
883.809326	1401.720825	4211.988770	2152.642578	26.720646
884.103760	1351.659302	3920.722412	2082.101563	28.432243
884.398132	1403.996338	3688.619141	2000.182739	26.095615
884.692505	1378.965576	3547.536865	2034.315552	30.220356
884.986816	1333.455200	3335.913574	1843.171875	25.454546
885.281067	1363.036987	3076.504150	1815.865601	26.427622
885.575256	1374.414551	2978.656738	1806.763550	26.950357
885.869385	1406.271851	2742.002686	1777.181763	27.768312
886.163452	1488.190552	2662.359375	1679.334351	16.279074
886.457458	1415.373901	2459.837891	1633.823975	20.915041
886.751465	1410.822876	2343.786377	1565.558350	16.585373
887.045410	1360.761475	2243.663574	1563.282837	22.938145
887.339233	1358.485962	2116.234375	1529.150024	22.522524
887.632996	1390.343262	2070.723877	1504.119263	16.722404
887.926758	1367.588013	1966.049927	1524.598877	26.235731
888.220398	1397.169800	1922.815063	1465.435425	12.987014
888.514099	1390.343262	1931.917114	1501.843750	20.588234
888.807678	1328.904175	1811.314575	1410.822876	16.981123
889.101196	1385.792114	1929.641602	1499.568237	20.920517
889.394653	1374.414551	1859.100464	1372.139038	-0.469482
889.688049	1435.853638	1893.233276	1431.302612	-0.995021
889.981384	1338.006226	1822.692139	1410.822876	15.023472
890.274719	1385.792114	1733.946899	1479.088501	26.797388
890.567932	1378.965576	1843.171875	1444.955688	14.215687
>>>>>End Processed Spectral Data<<<<<
