Jaz Data File
++++++++++++++++++++++++++++++++++++
Date: Wed Feb 07 06:38:05 2024
User: jaz
Dark Spectrum Present: Yes
Reference Spectrum Present: Yes
Processed Spectrum Present: Yes
Spectrometers: JAZA3692
Integration Time (usec): 40000 (JAZA3692)
Spectra Averaged: 1 (JAZA3692)
Boxcar Smoothing: 0 (JAZA3692)
Correct for Electrical Dark: No (JAZA3692)
Strobe/Lamp Enabled: Yes (JAZA3692)
Correct for Detector Non-linearity: No (JAZA3692)
Correct for Stray Light: No (JAZA3692)
Number of Pixels in Processed Spectrum: 2048
>>>>>Begin Processed Spectral Data<<<<<
W	D	R	S	P
190.244385	0.000000	0.000000	0.000000	0.000000
190.627136	0.000000	0.000000	0.000000	0.000000
191.009842	1221.954712	1244.709839	1180.995239	-180.001068
191.392532	1335.730713	1244.709839	1231.056763	114.999939
191.775177	1317.526489	1301.597900	1210.577026	671.430847
192.157791	1219.679199	1292.495850	1267.465088	65.624947
192.540390	1322.077637	1281.118164	1217.403687	255.554932
192.922943	1274.291626	1312.975464	1203.750488	-182.352997
193.305481	1333.455200	1312.975464	1319.802124	66.666267
193.687958	1281.118164	1272.016113	1262.914063	200.000000
194.070419	1290.220337	1285.669312	1312.975464	-500.000000
194.452866	1244.709839	1265.189575	1281.118164	177.777313
194.835251	1290.220337	1306.148926	1372.139038	514.287231
195.217621	1299.322388	1349.383789	1242.434326	-113.636574
195.599960	1312.975464	1301.597900	1340.281738	-240.001068
195.982254	1297.046875	1297.046875	1258.363037	0.000000
196.364517	1297.046875	1310.699951	1306.148926	66.666664
196.746750	1326.628662	1365.312500	1256.087524	-182.352997
197.128952	1290.220337	1353.934937	1219.679199	-110.714241
197.511139	1328.904175	1326.628662	1251.536499	3400.010742
197.893280	1331.179688	1335.730713	1233.332275	-2150.008057
198.275391	1310.699951	1312.975464	1240.158813	-3100.010742
198.657471	1276.567139	1297.046875	1299.322388	111.111046
199.039520	1244.709839	1349.383789	1231.056763	-13.043432
199.421539	1347.108276	1331.179688	1283.393677	400.001526
199.803513	1256.087524	1285.669312	1246.985352	-30.769516
200.185471	1253.812012	1358.485962	1287.944824	32.608700
200.567383	1335.730713	1272.016113	1281.118164	85.714340
200.949265	1283.393677	1287.944824	1221.954712	-1349.966431
201.331131	1326.628662	1335.730713	1233.332275	-1025.004028
201.712967	1299.322388	1315.250977	1274.291626	-157.143631
202.094742	1235.607788	1308.424438	1272.016113	50.000000
202.476517	1233.332275	1278.842651	1244.709839	24.999933
202.858231	1258.363037	1281.118164	1235.607788	-100.000534
203.239944	1301.597900	1292.495850	1165.066650	1500.005371
203.621582	1256.087524	1328.904175	1260.638550	6.249979
204.003235	1363.036987	1285.669312	1251.536499	144.117661
204.384827	1276.567139	1292.495850	1199.199463	-485.712097
204.766388	1281.118164	1274.291626	1183.270874	1433.336914
205.147934	1301.597900	1292.495850	1192.372925	1200.004028
205.529449	1403.996338	1312.975464	1242.434326	177.499954
205.910904	1283.393677	1258.363037	1192.372925	363.637329
206.292343	1210.577026	1322.077637	1244.709839	30.612221
206.673767	1308.424438	1281.118164	1178.719727	474.999664
207.055115	1242.434326	1372.139038	1322.077637	61.403561
207.436462	1328.904175	1326.628662	1262.914063	2900.010742
207.817780	1303.873413	1399.445313	1292.495850	-11.904716
208.199051	1251.536499	1328.904175	1231.056763	-26.470663
208.580307	1242.434326	1390.343262	1160.515625	-55.384552
208.961517	1267.465088	1306.148926	1187.821899	-205.882339
209.342712	1292.495850	1312.975464	1242.434326	-244.445633
209.723846	1242.434326	1221.954712	1235.607788	33.333332
210.104965	1322.077637	1285.669312	1260.638550	168.750107
210.486069	1267.465088	1306.148926	1194.648438	-188.235336
210.867111	1281.118164	1226.505737	1149.138062	241.666794
211.248123	1301.597900	1299.322388	1224.230225	3400.010742
211.629120	1322.077637	1319.802124	1283.393677	1700.010742
212.010071	1274.291626	1338.006226	1194.648438	-124.999901
212.390991	1262.914063	1283.393677	1287.944824	122.222816
212.771881	1294.771362	1351.659302	1194.648438	-176.000259
213.152756	1319.802124	1374.414551	1192.372925	-233.333710
213.533569	1306.148926	1333.455200	1315.250977	33.333183
213.914368	1226.505737	1369.863525	1351.659302	87.301544
214.295135	1267.465088	1317.526489	1276.567139	18.181774
214.675858	1249.260864	1365.312500	1299.322388	43.137283
215.056549	1322.077637	1328.904175	1190.097412	-1933.340454
215.437225	1285.669312	1299.322388	1162.791138	-900.003601
215.817841	1276.567139	1360.761475	1272.016113	-5.405382
216.198441	1358.485962	1340.281738	1233.332275	687.498047
216.579025	1353.934937	1385.792114	1231.056763	-385.715820
216.959549	1299.322388	1292.495850	1221.954712	1133.336914
217.340057	1278.842651	1344.832764	1249.260864	-44.827606
217.720535	1301.597900	1347.108276	1233.332275	-150.000137
218.100967	1294.771362	1301.597900	1215.128052	-1166.671997
218.481369	1317.526489	1335.730713	1256.087524	-337.498413
218.861740	1344.832764	1292.495850	1251.536499	178.260925
219.242065	1256.087524	1228.781250	1281.118164	-91.666260
219.622391	1256.087524	1303.873413	1221.954712	-71.428642
220.002670	1274.291626	1317.526489	1217.403687	-131.578857
220.382919	1344.832764	1228.781250	1183.270874	139.215668
220.763123	1308.424438	1322.077637	1292.495850	-116.665627
221.143295	1356.210449	1322.077637	1219.679199	400.000000
221.523453	1269.740601	1340.281738	1194.648438	-106.451591
221.903549	1251.536499	1356.210449	1278.842651	26.086864
222.283630	1297.046875	1333.455200	1290.220337	-18.749937
222.663696	1317.526489	1319.802124	1251.536499	-2899.849854
223.043701	1206.026001	1333.455200	1322.077637	91.071465
223.423676	1224.230225	1378.965576	1272.016113	30.882334
223.803635	1244.709839	1347.108276	1260.638550	15.555619
224.183548	1260.638550	1285.669312	1347.108276	345.453827
224.563431	1260.638550	1283.393677	1340.281738	350.001068
224.943283	1322.077637	1335.730713	1262.914063	-433.335114
225.323105	1246.985352	1353.934937	1246.985352	0.000000
225.702881	1260.638550	1308.424438	1215.128052	-95.238365
226.082642	1242.434326	1265.189575	1228.781250	-59.999680
226.462357	1365.312500	1383.516602	1201.474976	-900.003357
226.842041	1219.679199	1369.863525	1196.923950	-15.151547
227.221695	1319.802124	1315.250977	1231.056763	1949.955688
227.601318	1306.148926	1406.271851	1185.546387	-120.454468
227.980911	1276.567139	1463.159912	1206.026001	-37.804859
228.360474	1287.944824	1383.516602	1212.852539	-78.571609
228.739990	1283.393677	1440.404663	1237.883301	-28.985472
229.119476	1285.669312	1408.547363	1269.740601	-12.963024
229.498932	1283.393677	1424.476074	1178.719727	-74.193489
229.878372	1299.322388	1504.119263	1278.842651	-10.000024
230.257736	1262.914063	1515.496826	1178.719727	-33.333366
230.637115	1174.168701	1572.384888	1224.230225	12.571444
231.016449	1242.434326	1454.057739	1210.577026	-15.053769
231.395737	1267.465088	1542.803101	1246.985352	-7.438035
231.774994	1269.740601	1442.680176	1244.709839	-14.473703
232.154221	1276.567139	1476.812988	1226.505737	-24.999969
232.533417	1231.056763	1451.782227	1244.709839	6.185546
232.912582	1265.189575	1419.924927	1258.363037	-4.411751
233.291702	1299.322388	1392.618774	1251.536499	-51.219440
233.670792	1276.567139	1447.231201	1249.260864	-16.000015
234.049866	1251.536499	1444.955688	1208.301514	-22.352997
234.428894	1349.383789	1417.649414	1306.148926	-63.333286
234.807892	1292.495850	1410.822876	1240.158813	-44.230839
235.186874	1308.424438	1444.955688	1237.883301	-51.666660
235.565781	1203.750488	1504.119263	1262.914063	19.696980
235.944687	1274.291626	1490.466064	1249.260864	-11.578964
236.323547	1333.455200	1501.843750	1196.923950	-81.081078
236.702377	1287.944824	1481.364014	1265.189575	-11.764731
237.081177	1283.393677	1501.843750	1278.842651	-2.083325
237.459946	1269.740601	1515.496826	1272.016113	0.925923
237.838669	1265.189575	1535.976563	1287.944824	8.403377
238.217361	1206.026001	1565.558350	1196.923950	-2.531636
238.596039	1244.709839	1515.496826	1224.230225	-7.562998
238.974670	1299.322388	1561.007324	1303.873413	1.739124
239.353271	1297.046875	1488.190552	1281.118164	-8.333370
239.731842	1244.709839	1533.701050	1228.781250	-5.511790
240.110367	1308.424438	1488.190552	1292.495850	-8.860729
240.488876	1301.597900	1608.793213	1267.465088	-11.111111
240.867340	1356.210449	1590.588989	1201.474976	-66.019470
241.245789	1306.148926	1545.078613	1244.709839	-25.714296
241.624176	1303.873413	1508.670288	1285.669312	-8.888857
242.002548	1297.046875	1706.640625	1199.199463	-23.888893
242.380890	1351.659302	1758.977539	1203.750488	-36.312840
242.759186	1272.016113	1736.222412	1278.842651	1.470583
243.137451	1303.873413	1904.610962	1283.393677	-3.409099
243.515686	1274.291626	1966.049927	1322.077637	6.907906
243.893890	1274.291626	2011.560425	1308.424438	4.629629
244.272049	1210.577026	1981.978638	1328.904175	15.339240
244.650192	1331.179688	1843.171875	1360.761475	5.777781
245.028290	1308.424438	1827.243164	1262.914063	-8.771922
245.406357	1190.097412	1699.814087	1224.230225	6.696428
245.784393	1272.016113	1692.987427	1294.771362	5.405416
246.162384	1308.424438	1756.702026	1281.118164	-6.091376
246.540359	1278.842651	1793.110352	1269.740601	-1.769905
246.918289	1208.301514	1822.692139	1287.944824	12.962976
247.296204	1338.006226	2052.519775	1269.740601	-9.554140
247.674057	1294.771362	2245.938965	1317.526489	2.392336
248.051895	1338.006226	2393.847900	1353.934937	1.508627
248.429703	1347.108276	2443.909424	1367.588013	1.867224
248.807465	1278.842651	2473.491211	1256.087524	-1.904755
249.185196	1281.118164	2316.480225	1335.730713	5.274730
249.562897	1317.526489	2125.336426	1226.505737	-11.267595
249.940567	1358.485962	2098.030273	1306.148926	-7.076931
250.318192	1312.975464	1972.876587	1347.108276	5.172413
250.695801	1317.526489	1986.529663	1331.179688	2.040827
251.073349	1324.353149	1859.100464	1269.740601	-10.212776
251.450882	1303.873413	1827.243164	1233.332275	-13.478260
251.828400	1276.567139	1879.580200	1283.393677	1.132071
252.205872	1221.954712	1790.834839	1328.904175	18.799999
252.583313	1269.740601	1900.059814	1315.250977	7.220211
252.960693	1226.505737	1938.743774	1281.118164	7.667721
253.338074	1303.873413	2045.693237	1351.659302	6.441711
253.715408	1287.944824	2077.550537	1356.210449	8.645534
254.092682	1319.802124	1945.570313	1322.077637	0.363635
254.469955	1258.363037	1806.763550	1319.802124	11.203324
254.847198	1231.056763	1779.457275	1253.812012	4.149385
255.224365	1283.393677	1854.549438	1310.699951	4.780880
255.601563	1215.128052	1768.079712	1278.842651	11.522635
255.978683	1338.006226	1834.069824	1326.628662	-2.293570
256.355743	1260.638550	1818.141113	1240.158813	-3.673478
256.732819	1240.158813	1906.886475	1233.332275	-1.023887
257.109894	1301.597900	1829.518677	1246.985352	-10.344838
257.486877	1267.465088	1920.539551	1251.536499	-2.439016
257.863831	1276.567139	1934.192627	1240.158813	-5.536331
258.240753	1326.628662	1943.294800	1376.690063	8.118073
258.617645	1303.873413	2029.764526	1294.771362	-1.253914
258.994507	1251.536499	2118.509766	1301.597900	5.774273
259.371307	1274.291626	2184.500000	1303.873413	3.250002
259.748108	1292.495850	2286.898438	1265.189575	-2.745998
260.124878	1212.852539	2493.970703	1301.597900	6.927180
260.501617	1315.250977	2760.206787	1363.036987	3.307091
260.878296	1294.771362	2919.493164	1331.179688	2.240896
261.254944	1301.597900	3056.024414	1408.547363	6.095978
261.631561	1262.914063	2933.146240	1335.730713	4.359673
262.008179	1347.108276	2657.808350	1367.588013	1.562504
262.384735	1290.220337	2484.868652	1274.291626	-1.333339
262.761261	1278.842651	2275.520752	1260.638550	-1.826478
263.137695	1281.118164	2311.929199	1290.220337	0.883011
263.514191	1206.026001	2141.265137	1242.434326	3.892943
263.890594	1219.679199	2107.132324	1326.628662	12.051280
264.267029	1265.189575	2141.265137	1272.016113	0.779218
264.643341	1251.536499	2145.816162	1253.812012	0.254452
265.019653	1333.455200	2111.683350	1274.291626	-7.602343
265.395935	1312.975464	2152.642578	1221.954712	-10.840099
265.772217	1256.087524	2045.693237	1244.709839	-1.440933
266.148407	1281.118164	2045.693237	1292.495850	1.488106
266.524597	1281.118164	2079.825928	1326.628662	5.698016
266.900726	1237.883301	2286.898438	1290.220337	4.989159
267.276855	1322.077637	2352.888428	1340.281738	1.765998
267.652924	1272.016113	2407.500977	1283.393677	1.002000
268.028992	1351.659302	2346.062012	1308.424438	-4.347822
268.404999	1303.873413	2430.256104	1363.036987	5.252529
268.781006	1335.730713	2416.603027	1331.179688	-0.421051
269.156921	1290.220337	2334.684326	1367.588013	7.407405
269.532837	1322.077637	2325.582275	1312.975464	-0.907038
269.908661	1233.332275	2409.776611	1308.424438	6.382977
270.284546	1301.597900	2277.796387	1194.648438	-10.955709
270.660339	1365.312500	2409.776611	1306.148926	-5.664491
271.036133	1260.638550	2450.735840	1338.006226	6.500954
271.411835	1285.669312	2318.755615	1276.567139	-0.881066
271.787537	1256.087524	2594.093750	1253.812012	-0.170067
272.163239	1215.128052	2814.819336	1365.312500	9.388339
272.538849	1315.250977	2987.758789	1365.312500	2.993201
272.914459	1299.322388	2912.666504	1340.281738	2.538786
273.290070	1272.016113	2846.676514	1363.036987	5.780349
273.665588	1281.118164	2673.737061	1351.659302	5.065358
274.041046	1285.669312	2714.696289	1317.526489	2.229291
274.416565	1246.985352	2550.858887	1324.353149	5.933689
274.791962	1206.026001	2621.399902	1272.016113	4.662380
275.167389	1319.802124	2544.032227	1340.281738	1.672857
275.542755	1283.393677	2498.521729	1326.628662	3.558060
275.918060	1244.709839	2523.552490	1306.148926	4.804273
276.293365	1281.118164	2459.837891	1281.118164	0.000000
276.668640	1317.526489	2584.991699	1274.291626	-3.411128
277.043854	1272.016113	2546.307861	1367.588013	7.500001
277.419037	1260.638550	2687.390137	1315.250977	3.827746
277.794189	1287.944824	2716.971924	1335.730713	3.343946
278.169312	1217.403687	2714.696289	1306.148926	5.927047
278.544373	1294.771362	2682.839111	1317.526489	1.639338
278.919464	1322.077637	2537.205811	1333.455200	0.936326
279.294464	1287.944824	2569.062988	1315.250977	2.131431
279.669464	1237.883301	2619.124512	1306.148926	4.942339
280.044403	1256.087524	2669.185791	1283.393677	1.932361
280.419312	1262.914063	2689.665527	1347.108276	5.901113
280.794189	1276.567139	2710.145264	1285.669312	0.634927
281.169037	1331.179688	2680.563477	1312.975464	-1.349077
281.543854	1353.934937	2810.268311	1258.363037	-6.562501
281.918671	1228.781250	2851.227539	1353.934937	7.713888
282.293365	1312.975464	2924.044189	1338.006226	1.553674
282.668091	1358.485962	3056.024414	1390.343262	1.876676
283.042786	1353.934937	3147.045166	1397.169800	2.411166
283.417419	1299.322388	3030.993652	1365.312500	3.810776
283.792053	1237.883301	3046.922363	1413.098389	9.685534
284.166595	1283.393677	2905.840088	1367.588013	5.189344
284.541138	1199.199463	2873.982666	1319.802124	7.201091
284.915619	1237.883301	2951.350586	1338.006226	5.843294
285.290100	1308.424438	3012.789551	1347.108276	2.269692
285.664520	1297.046875	3067.402100	1419.924927	6.940870
286.038940	1326.628662	3117.463379	1351.659302	1.397708
286.413300	1269.740601	3112.912354	1344.832764	4.074073
286.787628	1310.699951	3244.892578	1401.720825	4.705884
287.161896	1285.669312	3470.169189	1353.934937	3.125000
287.536194	1240.158813	3360.944336	1349.383789	5.150213
287.910400	1290.220337	3281.301025	1440.404663	7.542855
288.284607	1331.179688	3219.861816	1392.618774	3.253014
288.658752	1303.873413	3096.983887	1406.271851	5.710660
289.032867	1303.873413	2974.105713	1408.547363	6.267029
289.406921	1278.842651	2924.044189	1376.690063	5.947443
289.781006	1269.740601	3046.922363	1378.965576	6.145966
290.154999	1294.771362	3128.841064	1369.863525	4.094292
290.529022	1258.363037	3213.035400	1353.934937	4.889408
290.902954	1308.424438	3272.198975	1392.618774	4.287373
291.276825	1292.495850	3429.209961	1449.506714	7.348239
291.650757	1324.353149	3374.597412	1390.343262	3.218647
292.024597	1369.863525	3447.414063	1406.271851	1.752464
292.398407	1281.118164	3356.393066	1369.863525	4.276319
292.772156	1290.220337	3310.882813	1312.975464	1.126122
293.145905	1240.158813	3206.208740	1347.108276	5.439814
293.519592	1283.393677	3192.555664	1344.832764	3.218118
293.893280	1306.148926	3156.147461	1383.516602	4.182040
294.266907	1310.699951	3297.229736	1394.894287	4.238262
294.640533	1278.842651	3360.944336	1374.414551	4.590165
295.014069	1272.016113	3481.546875	1394.894287	5.561279
295.387604	1317.526489	3615.802490	1392.618774	3.267331
295.761078	1267.465088	3572.567627	1463.159912	8.489636
296.134552	1235.607788	3590.771729	1472.261963	10.048309
296.507996	1251.536499	3593.047363	1433.578125	7.774537
296.881378	1178.719727	3572.567627	1406.271851	9.505705
297.254730	1285.669312	3875.211914	1451.782227	6.414759
297.628021	1262.914063	4068.631104	1499.568237	8.434712
298.001282	1274.291626	4027.671875	1417.649414	5.206610
298.374573	1310.699951	4068.631104	1467.710938	5.693071
298.747803	1253.812012	3993.539063	1463.159912	7.641195
299.121002	1269.740601	3795.568604	1351.659302	3.243241
299.494141	1228.781250	3702.272461	1401.720825	6.991720
299.867188	1221.954712	3645.384277	1372.139038	6.197181
300.240265	1253.812012	3538.434814	1369.863525	5.079679
300.613312	1278.842651	3424.658691	1317.526489	1.802757
300.986328	1283.393677	3401.903564	1378.965576	4.511280
301.359314	1251.536499	3310.882813	1347.108276	4.640880
301.732239	1256.087524	3333.637939	1335.730713	3.833514
302.105103	1253.812012	3413.281250	1358.485962	4.847207
302.477997	1258.363037	3401.903564	1274.291626	0.743097
302.850830	1285.669312	3408.730225	1454.057739	7.931398
303.223602	1285.669312	3272.198975	1335.730713	2.520043
303.596375	1256.087524	3315.433838	1349.383789	4.530383
303.969116	1287.944824	3224.413086	1342.557251	2.820208
304.341766	1294.771362	3283.576416	1388.067749	4.691078
304.714478	1349.383789	3294.954102	1408.547363	3.040937
305.087067	1347.108276	3035.544678	1406.271851	3.504045
305.459656	1246.985352	3192.555664	1358.485962	5.730999
305.832214	1294.771362	3224.413086	1335.730713	2.122640
306.204681	1340.281738	3235.790527	1397.169800	3.001203
306.577148	1303.873413	3233.515137	1394.894287	4.716983
306.949646	1347.108276	3326.811523	1297.046875	-2.528733
307.322021	1281.118164	3231.239502	1392.618774	5.717624
307.694397	1287.944824	3162.973877	1392.618774	5.582524
308.066742	1262.914063	3251.719238	1403.996338	7.093821
308.439026	1351.659302	3285.852051	1315.250977	-1.882352
308.811279	1310.699951	3404.179199	1381.241089	3.369565
309.183502	1253.812012	3606.700439	1419.924927	7.059957
309.555695	1235.607788	3622.629150	1372.139038	5.719733
309.927887	1215.128052	3608.976074	1374.414551	6.653994
310.299988	1237.883301	3547.536865	1381.241089	6.206896
310.672058	1333.455200	3574.843262	1449.506714	5.177662
311.044128	1219.679199	3684.068115	1435.853638	8.771929
311.416168	1272.016113	3693.170166	1392.618774	4.981205
311.788147	1253.812012	3618.078125	1358.485962	4.427334
312.160065	1187.821899	3715.925537	1342.557251	6.120610
312.531982	1328.904175	3595.322754	1363.036987	1.506024
312.903870	1315.250977	3613.527100	1340.281738	1.089110
313.275696	1301.597900	3449.689453	1290.220337	-0.529659
313.647491	1276.567139	3413.281250	1335.730713	2.768904
314.019318	1342.557251	3360.944336	1331.179688	-0.563696
314.391022	1328.904175	3397.352539	1365.312500	1.760176
314.762726	1328.904175	3574.843262	1342.557251	0.607901
315.134369	1260.638550	3502.026611	1333.455200	3.248730
315.505981	1267.465088	3606.700439	1403.996338	5.836576
315.877594	1249.260864	3718.200928	1438.129150	7.649772
316.249146	1315.250977	3611.251465	1383.516602	2.973241
316.620636	1267.465088	3583.945313	1406.271851	5.992141
316.992157	1276.567139	3338.188965	1306.148926	1.434879
317.363586	1240.158813	3388.250488	1365.312500	5.826273
317.735016	1283.393677	3301.780762	1408.547363	6.200678
318.106354	1274.291626	3269.923340	1394.894287	6.043333
318.477722	1258.363037	3306.331787	1353.934937	4.666668
318.849060	1251.536499	3433.760986	1324.353149	3.336808
319.220306	1251.536499	3372.321777	1335.730713	3.969955
319.591522	1276.567139	3456.516113	1315.250977	1.774529
319.962738	1283.393677	3424.658691	1383.516602	4.675877
320.333923	1258.363037	3533.883789	1317.526489	2.599996
320.705017	1274.291626	3413.281250	1340.281738	3.085107
321.076111	1297.046875	3406.454590	1299.322388	0.107874
321.447144	1328.904175	3422.383301	1333.455200	0.217391
321.818176	1219.679199	3299.505127	1351.659302	6.345728
322.189178	1297.046875	3299.505127	1356.210449	2.954547
322.560120	1317.526489	3258.545898	1308.424438	-0.468931
322.931030	1262.914063	3363.219727	1308.424438	2.166845
323.301910	1262.914063	3574.843262	1390.343262	5.511812
323.672729	1317.526489	3704.547852	1324.353149	0.285991
324.043549	1317.526489	3772.813477	1292.495850	-1.019459
324.414337	1269.740601	4011.743164	1401.720825	4.813279
324.785095	1358.485962	4080.008789	1385.792114	1.003341
325.155792	1287.944824	4116.416992	1347.108276	2.091711
325.526428	1285.669312	4168.753906	1426.751587	4.893449
325.897034	1208.301514	4041.324951	1401.720825	6.827311
326.267670	1262.914063	4018.569824	1397.169800	4.872007
326.638184	1283.393677	3891.140625	1394.894287	4.275745
327.008728	1287.944824	4011.743164	1392.618774	3.842941
327.379211	1299.322388	4027.671875	1344.832764	1.668055
327.749634	1319.802124	3893.416016	1319.802124	0.000000
328.120026	1228.781250	3791.017578	1344.832764	4.529305
328.490417	1219.679199	3806.946289	1306.148926	3.342126
328.860748	1228.781250	3725.027588	1363.036987	5.378305
329.231079	1260.638550	3797.844238	1335.730713	2.959641
329.601318	1274.291626	3649.935303	1319.802124	1.915712
329.971558	1256.087524	3777.364502	1272.016113	0.631767
330.341736	1244.709839	3781.915527	1308.424438	2.511212
330.711914	1303.873413	3841.079102	1308.424438	0.179372
331.082062	1285.669312	3784.191162	1347.108276	2.459012
331.452148	1246.985352	3802.395264	1353.934937	4.185222
331.822174	1285.669312	3747.782715	1274.291626	-0.462111
332.192200	1262.914063	3845.630127	1319.802124	2.202645
332.562134	1292.495850	3918.446777	1240.158813	-1.993070
332.932129	1237.883301	3993.539063	1363.036987	4.541702
333.302063	1319.802124	4080.008789	1406.271851	3.132727
333.671906	1312.975464	4284.805664	1349.383789	1.225115
334.041718	1194.648438	4214.264648	1322.077637	4.220046
334.411499	1249.260864	4264.326172	1322.077637	2.415097
334.781281	1324.353149	4218.815430	1285.669312	-1.336478
335.151001	1274.291626	4293.907715	1401.720825	4.220046
335.520721	1290.220337	4091.386475	1399.445313	3.899268
335.890350	1312.975464	4039.049316	1324.353149	0.417365
336.259979	1233.332275	4018.569824	1319.802124	3.104577
336.629547	1319.802124	4045.875977	1415.373901	3.505840
336.999084	1272.016113	4070.906738	1383.516602	3.983739
337.368622	1340.281738	4098.212891	1363.036987	0.825084
337.738098	1281.118164	4164.203125	1349.383789	2.367798
338.107513	1260.638550	4150.549805	1338.006226	2.677165
338.476898	1260.638550	4248.397461	1392.618774	4.417366
338.846252	1328.904175	4282.530273	1363.036987	1.155624
339.215576	1285.669312	4243.846191	1340.281738	1.846152
339.584869	1269.740601	4230.193359	1369.863525	3.382014
339.954132	1240.158813	4298.458984	1367.588013	4.166667
340.323334	1283.393677	4157.376465	1331.179688	1.662710
340.692505	1287.944824	4098.212891	1360.761475	2.591093
341.061646	1281.118164	3970.783691	1388.067749	3.976315
341.430786	1299.322388	4100.488281	1369.863525	2.518278
341.799896	1310.699951	4221.091309	1369.863525	2.032839
342.168915	1292.495850	4248.397461	1278.842651	-0.461896
342.537903	1278.842651	4382.652832	1358.485962	2.565985
342.906830	1272.016113	4243.846191	1374.414551	3.445636
343.275757	1276.567139	4373.550781	1363.036987	2.792067
343.644684	1274.291626	4371.275391	1344.832764	2.277737
344.013550	1333.455200	4487.327148	1308.424438	-0.793652
344.382355	1231.056763	4564.694824	1312.975464	2.457336
344.751129	1274.291626	4824.104004	1347.108276	2.051282
345.119873	1333.455200	4976.563965	1353.934937	0.562150
345.488586	1324.353149	5072.135742	1438.129150	3.035822
345.857269	1206.026001	5229.146973	1463.159912	6.391404
346.225891	1237.883301	5342.922852	1422.200562	4.490024
346.594482	1265.189575	5445.321289	1344.832764	1.905279
346.963043	1340.281738	5197.289551	1424.476074	2.182893
347.331543	1228.781250	5001.594727	1392.618774	4.342582
347.700043	1342.557251	4997.043457	1351.659302	0.249065
348.068512	1281.118164	4956.084473	1369.863525	2.414862
348.436951	1283.393677	4621.582520	1415.373901	3.953648
348.805328	1285.669312	4580.623535	1376.690063	2.762429
349.173645	1342.557251	4664.817871	1472.261963	3.904110
349.541931	1308.424438	4623.858398	1394.894287	2.608100
349.910217	1310.699951	4710.328125	1353.934937	1.271756
350.278473	1290.220337	4855.961426	1378.965576	2.488830
350.646667	1353.934937	4819.553223	1394.894287	1.181877
351.014801	1253.812012	4912.849609	1360.761475	2.922885
351.382935	1267.465088	4933.329102	1392.618774	3.414030
351.751007	1306.148926	5006.145996	1372.139038	1.783518
352.119049	1249.260864	5049.380859	1385.792114	3.592814
352.487091	1265.189575	5012.972168	1372.139038	2.853673
352.855072	1328.904175	5247.351074	1397.169800	1.742160
353.222992	1258.363037	5035.727539	1458.608887	5.301205
353.590881	1369.863525	5222.320313	1344.832764	-0.649735
353.958740	1228.781250	5313.341309	1435.853638	5.069637
354.326599	1242.434326	5397.535156	1429.027100	4.490692
354.694397	1219.679199	5659.220215	1481.364014	5.894412
355.062134	1367.588013	5654.669434	1415.373901	1.114648
355.429840	1317.526489	5602.332031	1444.955688	2.973979
355.797516	1244.709839	5811.680176	1454.057739	4.583956
356.165192	1283.393677	6075.640625	1429.027100	3.038938
356.532776	1267.465088	6018.752441	1472.261963	4.310345
356.900360	1256.087524	6332.774414	1492.741699	4.661587
357.267883	1267.465088	6330.499023	1447.231201	3.550561
357.635376	1347.108276	6717.337402	1435.853638	1.652543
358.002808	1203.750488	6853.868652	1476.812988	4.832863
358.370270	1240.158813	7115.553711	1392.618774	2.594889
358.737640	1274.291626	7265.737793	1419.924927	2.430687
359.105011	1342.557251	7115.553711	1474.537476	2.286165
359.472321	1349.383789	6710.510742	1476.812988	2.376911
359.839569	1356.210449	6851.593262	1460.884399	1.904762
360.206787	1360.761475	6699.133301	1497.292725	2.557545
360.574005	1308.424438	7049.563477	1467.710938	2.774476
360.941193	1310.699951	7283.941895	1447.231201	2.285714
361.308319	1240.158813	7645.750000	1606.517700	5.719361
361.675415	1256.087524	8219.180664	1492.741699	3.398693
362.042450	1292.495850	8628.774414	1460.884399	2.295286
362.409424	1233.332275	9168.073242	1531.425537	3.756811
362.776428	1228.781250	9295.502930	1647.477051	5.190408
363.143402	1260.638550	8913.214844	1592.864502	4.341361
363.510284	1344.832764	8376.192383	1495.017212	2.135923
363.877136	1208.301514	7704.913574	1561.007324	5.429073
364.243988	1328.904175	7131.482422	1524.598877	3.372547
364.610779	1310.699951	6892.552734	1472.261963	2.894416
364.977539	1328.904175	6665.000488	1499.568237	3.198294
365.344269	1269.740601	6528.469238	1458.608887	3.591520
365.710938	1326.628662	6578.530762	1403.996338	1.473136
366.077576	1287.944824	6403.315430	1458.608887	3.336299
366.444183	1319.802124	6153.008301	1467.710938	3.060263
366.810760	1287.944824	6303.192383	1376.690063	1.769509
367.177277	1281.118164	6419.244141	1435.853638	3.011516
367.543823	1276.567139	6364.631836	1447.231201	3.354204
367.910248	1258.363037	6271.335449	1424.476074	3.313663
368.276642	1322.077637	6284.988281	1501.843750	3.622191
368.643036	1242.434326	6178.039063	1520.047852	5.624712
369.009399	1242.434326	6127.977539	1435.853638	3.959014
369.375671	1221.954712	6089.293457	1403.996338	3.740065
369.741974	1287.944824	5966.415527	1529.150024	5.155642
370.108215	1319.802124	5959.588867	1506.394775	4.021578
370.474396	1312.975464	6032.405762	1381.241089	1.446480
370.840546	1312.975464	6091.569336	1465.435425	3.190478
371.206665	1299.322388	6073.365234	1397.169800	2.049571
371.572784	1265.189575	6339.601074	1499.568237	4.618834
371.938843	1226.505737	6264.508789	1444.955688	4.336042
372.304840	1272.016113	6523.917969	1449.506714	3.379549
372.670807	1299.322388	6441.999512	1424.476074	2.433629
373.036713	1285.669312	6323.672363	1472.261963	3.703703
373.402649	1256.087524	6344.151855	1429.027100	3.398926
373.768524	1260.638550	6467.030273	1426.751587	3.190560
374.134308	1308.424438	6264.508789	1435.853638	2.571167
374.500122	1276.567139	6391.937988	1504.119263	4.448399
374.865875	1231.056763	6519.367188	1490.466064	4.905334
375.231567	1274.291626	6398.764648	1433.578125	3.108349
375.597260	1226.505737	6503.438477	1513.221313	5.433376
375.962891	1233.332275	6881.174805	1556.456177	5.721191
376.328461	1267.465088	6835.664551	1535.976563	4.822232
376.694031	1267.465088	7024.532715	1497.292725	3.992096
377.059540	1331.179688	7365.860840	1538.252075	3.431372
377.425049	1258.363037	7643.474609	1572.384888	4.918033
377.790497	1249.260864	7782.281250	1642.926025	6.025776
378.155945	1333.455200	8084.925293	1658.854614	4.819682
378.521301	1256.087524	7834.618164	1615.619751	5.465236
378.886597	1369.863525	7973.424805	1608.793213	3.618194
379.251892	1312.975464	7497.840820	1658.854614	5.592348
379.617157	1272.016113	7274.839844	1652.028076	6.330554
379.982422	1196.923950	7056.390137	1588.313477	6.679611
380.347595	1310.699951	7033.634766	1586.037964	4.811133
380.712738	1251.536499	6947.165039	1597.415649	6.072713
381.077820	1260.638550	7042.736816	1556.456177	5.116095
381.442902	1278.842651	7097.349609	1601.966675	5.553384
381.807953	1294.771362	7015.430664	1572.384888	4.852824
382.172974	1267.465088	6938.062988	1613.344238	6.099518
382.537933	1285.669312	6992.675293	1542.803101	4.505581
382.902832	1256.087524	7010.879395	1608.793213	6.128904
383.267700	1242.434326	7088.247070	1658.854614	7.123394
383.632538	1292.495850	7179.268066	1654.303589	6.146114
383.997345	1246.985352	7404.544922	1690.711914	7.206208
384.362152	1292.495850	7582.035156	1636.099487	5.463097
384.726898	1246.985352	7554.729004	1718.018188	7.467533
385.091553	1233.332275	7577.484375	1599.691162	5.774749
385.456238	1315.250977	7559.280273	1679.334351	5.830904
385.820862	1269.740601	7618.443848	1658.854614	6.129032
386.185425	1219.679199	7611.617188	1615.619751	6.194374
386.549988	1258.363037	7609.341797	1679.334351	6.628448
386.914490	1244.709839	7729.944336	1681.609863	6.736843
387.278961	1262.914063	7950.669922	1652.028076	5.818305
387.643372	1258.363037	8057.619141	1718.018188	6.760375
388.007782	1258.363037	8046.241699	1683.885376	6.268856
388.372101	1281.118164	8032.588379	1790.834839	7.549714
388.736450	1240.158813	8005.282227	1752.151001	7.568113
389.100739	1278.842651	8003.006836	1852.273926	8.527919
389.464966	1274.291626	7727.668457	1788.559326	7.968970
389.829163	1317.526489	7907.434570	1804.488037	7.389504
390.193329	1244.709839	7805.036133	1777.181763	8.116547
390.557495	1315.250977	8098.578613	1861.375977	8.050989
390.921570	1210.577026	8264.691406	1900.059814	9.774194
391.285614	1303.873413	8280.620117	1886.406738	8.349642
391.649597	1235.607788	8396.671875	1909.161987	9.405784
392.013550	1285.669312	8967.827148	1981.978638	9.063981
392.377502	1276.567139	9249.992188	1947.845825	8.418950
392.741455	1242.434326	9149.869141	1968.325439	9.179856
393.105316	1253.812012	9036.092773	2082.101563	10.643275
393.469086	1365.312500	8885.909180	2009.284912	8.562783
393.832886	1338.006226	8874.531250	1952.396851	8.152174
394.196655	1353.934937	8958.725586	1977.427612	8.198683
394.560333	1322.077637	9031.541992	1995.631714	8.736717
394.924042	1328.904175	9197.655273	2150.367188	10.439561
395.287659	1287.944824	9407.002930	2091.203613	9.893497
395.651245	1262.914063	9036.092773	2054.795166	10.187352
396.014771	1260.638550	9033.817383	2129.887451	11.182670
396.378296	1353.934937	8526.375977	2093.479248	10.310915
396.741791	1326.628662	8355.711914	2016.111450	9.809001
397.105255	1219.679199	8346.610352	2072.999512	11.973180
397.468628	1206.026001	8305.651367	2034.315552	11.666665
397.832001	1231.056763	8194.150391	2045.693237	11.699347
398.195313	1258.363037	8294.273438	2077.550537	11.642950
398.558624	1281.118164	8251.038086	2061.621826	11.198173
398.921844	1292.495850	8223.732422	2088.927979	11.490478
399.285095	1274.291626	8194.150391	2100.305664	11.936862
399.648254	1297.046875	8173.670898	2034.315552	10.721375
400.011383	1319.802124	8328.406250	2175.397949	12.207792
400.374451	1308.424438	8246.487305	2239.112549	13.414235
400.737549	1335.730713	8380.743164	2116.234375	11.078812
401.100586	1287.944824	8251.038086	2164.020264	12.581699
401.463562	1297.046875	8244.211914	2186.775391	12.807074
401.826508	1351.659302	8576.437500	2148.091553	11.023622
402.189392	1301.597900	8114.507324	2120.785400	12.024049
402.552246	1306.148926	8376.192383	2257.316650	13.453492
402.915070	1292.495850	8483.141602	2157.193604	12.025314
403.277893	1256.087524	8708.417969	2270.969727	13.618320
403.640656	1260.638550	8822.194336	2309.653564	13.873005
404.003326	1276.567139	9006.511719	2430.256104	14.924932
404.366028	1210.577026	8897.286133	2280.071777	13.913559
404.728699	1240.158813	9309.155273	2352.888428	13.790186
405.091248	1269.740601	9766.535156	2473.491211	14.167114
405.453857	1285.669312	9766.535156	2498.521729	14.301044
405.816345	1206.026001	9443.411133	2507.624023	15.801107
406.178833	1301.597900	9541.258789	2523.552490	14.830156
406.541260	1265.189575	9768.810547	2523.552490	14.797965
406.903687	1228.781250	9393.349609	2512.175049	15.719065
407.266052	1356.210449	9275.022461	2573.614014	15.373563
407.628387	1246.985352	9156.695313	2482.593262	15.621406
407.990662	1287.944824	9077.052734	2566.787354	16.418344
408.352905	1224.230225	9083.878906	2421.154053	15.228720
408.715118	1224.230225	9193.104492	2537.205811	16.476299
409.077332	1283.393677	9127.114258	2548.583252	16.129967
409.439484	1258.363037	9074.777344	2594.093750	17.088791
409.801575	1301.597900	9106.633789	2575.889648	16.326532
410.163605	1385.792114	9366.043945	2596.369141	15.169660
410.525635	1333.455200	9545.809570	2644.155273	15.960101
410.887604	1338.006226	9511.676758	2666.910400	16.258352
411.249573	1276.567139	9659.585938	2719.247314	17.209555
411.611481	1260.638550	9418.380859	2769.308838	18.493723
411.973328	1353.934937	9493.472656	2666.910400	16.130836
412.335144	1344.832764	9618.625977	2691.941162	16.281630
412.696930	1342.557251	9498.023438	2789.788574	17.745537
413.058685	1246.985352	9384.248047	2625.950928	16.946308
413.420410	1285.669312	9286.400391	2755.655762	18.373152
413.782104	1319.802124	9513.952148	2714.696289	17.023048
414.143707	1287.944824	9407.002930	2555.409912	15.610987
414.505310	1322.077637	9573.116211	2648.706299	16.078321
414.866852	1292.495850	9689.167969	2676.012451	16.476963
415.228394	1251.536499	9773.362305	2603.195801	15.861146
415.589874	1249.260864	9777.913086	2739.727051	17.475986
415.951324	1285.669312	9889.413086	2646.430664	15.815921
416.312683	1333.455200	10260.323242	2794.339600	16.365026
416.674072	1324.353149	10328.588867	2810.268311	16.502403
417.035370	1253.812012	11052.204102	2860.329590	16.395725
417.396667	1297.046875	10813.274414	2885.360352	16.690578
417.757935	1294.771362	11095.439453	2871.707275	16.090086
418.119141	1272.016113	11559.645508	2912.666504	15.947799
418.480286	1253.812012	11718.931641	3149.320801	18.112635
418.841400	1258.363037	12208.168945	2949.074951	15.440565
419.202484	1260.638550	12606.384766	3169.800537	16.827118
419.563568	1228.781250	12988.672852	3172.075928	16.524767
419.924591	1276.567139	13789.656250	3331.362549	16.421169
420.285553	1324.353149	13853.371094	3242.617188	15.310571
420.646484	1312.975464	14815.916016	3552.087891	16.582405
421.007355	1253.812012	15261.917969	3572.567627	16.552956
421.368225	1301.597900	15935.472656	3822.875000	17.229046
421.729065	1292.495850	16342.790039	3820.599365	16.797703
422.089874	1338.006226	16998.140625	3888.864990	16.288870
422.450592	1351.659302	16809.271484	3963.957275	16.899750
422.811279	1308.424438	16652.261719	4000.365479	17.544119
423.171936	1251.536499	16627.230469	4014.018799	17.966555
423.532593	1226.505737	16358.718750	4032.222900	18.541355
423.893127	1292.495850	16511.179688	4150.549805	18.779903
424.253723	1285.669312	16727.353516	4136.896973	18.464485
424.614197	1244.709839	16938.976563	4152.825684	18.529797
424.974670	1249.260864	17539.714844	4237.019531	18.340549
425.335052	1249.260864	17573.847656	4434.990234	19.514917
425.695496	1253.812012	16836.578125	4280.254395	19.421728
426.055817	1272.016113	16977.660156	4218.815430	18.762676
426.416168	1260.638550	16941.251953	4205.162598	18.778116
426.776398	1292.495850	15944.574219	4086.835449	19.071285
427.136627	1242.434326	15578.215820	3961.681641	18.968254
427.496826	1231.056763	15316.530273	3936.650879	19.208401
427.856995	1240.158813	14397.219727	3795.568604	19.422344
428.217102	1278.842651	14128.708984	3791.017578	19.550201
428.577179	1342.557251	13748.696289	3734.129639	19.277330
428.937195	1249.260864	13798.757813	3770.538086	20.090664
429.297180	1306.148926	13015.978516	3561.189941	19.257675
429.657135	1276.567139	13202.571289	3618.078125	19.633659
430.017059	1244.709839	13459.705078	3618.078125	19.429956
430.376984	1290.220337	13125.204102	3638.557861	19.842339
430.736786	1301.597900	12738.365234	3556.638916	19.717468
431.096588	1303.873413	12840.763672	3408.730225	18.244577
431.456360	1269.740601	12868.070313	3588.496338	19.992153
431.816071	1317.526489	12310.567383	3381.423828	18.774582
432.175781	1292.495850	12574.528320	3527.057129	19.806372
432.535400	1237.883301	12526.742188	3593.047363	20.862728
432.895020	1244.709839	12467.578125	3467.893799	19.809410
433.254578	1274.291626	12886.274414	3552.087891	19.615913
433.614105	1274.291626	12972.744141	3595.322754	19.840498
433.973602	1299.322388	13484.736328	3834.252441	20.802988
434.333038	1290.220337	13334.551758	3750.058350	20.423201
434.692444	1265.189575	13402.817383	3740.956299	20.397449
435.051819	1258.363037	13680.430664	3941.202148	21.597364
435.411133	1367.588013	13744.145508	4000.365479	21.272291
435.770416	1185.546387	13036.458984	3779.640137	21.889402
436.129669	1294.771362	13498.389648	4080.008789	22.823046
436.488861	1306.148926	13343.654297	3936.650879	21.852551
436.848083	1374.414551	13430.124023	4043.600586	22.140432
437.207184	1292.495850	13327.725586	4073.182129	23.104555
437.566254	1310.699951	13689.533203	4086.835449	22.426472
437.925293	1210.577026	13669.053711	4209.713379	24.073057
438.284363	1240.158813	13805.584961	4369.000000	24.900400
438.643311	1274.291626	13839.717773	4391.755371	24.809855
439.002258	1294.771362	13780.553711	4419.061523	25.022781
439.361145	1256.087524	14121.881836	4537.388672	25.504072
439.719971	1237.883301	14793.161133	4696.674805	25.516199
440.078827	1335.730713	14836.395508	4758.113770	25.349737
440.437592	1342.557251	15271.020508	4780.869141	24.685509
440.796295	1297.046875	15534.980469	5017.523438	26.130733
441.155029	1269.740601	16704.597656	5304.238770	26.138874
441.513672	1278.842651	16843.404297	5397.535156	26.461988
441.872253	1294.771362	17109.640625	5547.719727	26.892086
442.230865	1285.669312	16367.821289	5281.483887	26.493662
442.589386	1278.842651	16693.220703	5381.606934	26.616476
442.947876	1272.016113	16247.218750	5279.208496	26.758852
443.306335	1287.944824	15862.655273	5217.769043	26.963308
443.664764	1326.628662	15341.561523	5115.370605	27.033607
444.023102	1269.740601	15691.991211	5329.269531	28.147678
444.381500	1349.383789	15478.092773	5215.493652	27.363504
444.739777	1315.250977	15546.358398	5190.462891	27.230572
445.098022	1335.730713	15846.726563	5274.657227	27.144426
445.456238	1349.383789	15785.288086	5276.932617	27.206808
445.814423	1315.250977	16274.524414	5495.382813	27.943415
446.172577	1265.189575	17212.039063	5697.904297	27.796806
446.530701	1224.230225	17107.365234	5643.291504	27.822351
446.888733	1342.557251	17496.478516	5891.323242	28.158897
447.246765	1308.424438	18634.240234	6143.906250	27.909115
447.604736	1290.220337	17553.367188	5936.833984	28.571432
447.962677	1278.842651	18151.830078	6014.201660	28.064732
448.320587	1340.281738	18422.617188	5920.905273	26.814972
448.678436	1287.944824	17908.349609	6116.600098	29.052574
449.036255	1212.852539	17922.001953	5902.701172	28.067551
449.394043	1292.495850	16818.375000	5779.822754	28.902243
449.751770	1217.403687	17027.722656	5722.935059	28.497408
450.109467	1262.914063	16401.953125	5579.577148	28.513454
450.467163	1237.883301	16558.964844	5611.434082	28.545965
450.824768	1306.148926	16185.779297	5472.627441	28.001223
451.182343	1285.669312	15805.767578	5477.178711	28.866947
451.539886	1224.230225	15603.246094	5233.697754	27.884159
451.897369	1303.873413	15546.358398	5365.678223	28.518932
452.254822	1233.332275	15243.713867	5363.402344	29.478642
452.612274	1253.812012	15794.389648	5333.820801	28.059467
452.969635	1308.424438	15528.154297	5317.892090	28.196512
453.326965	1206.026001	15880.859375	5342.922852	28.190420
453.684326	1201.474976	15423.480469	5247.351074	28.447998
454.041534	1251.536499	15182.274414	5295.136719	29.026459
454.398773	1265.189575	14847.773438	5172.258789	28.765287
454.755951	1294.771362	14483.689453	5019.798828	28.243616
455.113098	1240.158813	13912.534180	4915.125000	28.999823
455.470215	1292.495850	14194.699219	4908.298340	28.024691
455.827240	1208.301514	14096.851563	4949.257813	29.025425
456.184265	1287.944824	14153.739258	4894.645020	28.033249
456.541260	1276.567139	13696.359375	4919.675781	29.333090
456.898193	1349.383789	13985.350586	4733.083496	26.778320
457.255096	1303.873413	14110.504883	4780.869141	27.149961
457.611969	1215.128052	13864.748047	4664.817871	27.271095
457.968781	1215.128052	13905.708008	4803.624512	28.276852
458.325531	1199.199463	14112.780273	4767.216309	27.629957
458.682312	1246.985352	15052.570313	5129.023926	28.119333
459.039001	1276.567139	15748.879883	5233.697754	27.342766
459.395630	1237.883301	16463.392578	5449.872559	27.664028
459.752289	1260.638550	17605.705078	5679.699707	27.036055
460.108856	1285.669312	18859.515625	6112.048828	27.463423
460.465363	1249.260864	19401.089844	6378.284668	28.256239
460.821899	1262.914063	19448.876953	6319.121094	27.802801
461.178345	1231.056763	19037.007813	6146.181641	27.603832
461.534760	1246.985352	18900.476563	6016.477051	27.017271
461.891144	1287.944824	17892.419922	5891.323242	27.723722
462.247467	1285.669312	17127.845703	5713.832520	27.951735
462.603760	1283.393677	16927.599609	5606.883301	27.636364
462.960052	1353.934937	16128.891602	5299.687988	26.705681
463.316254	1267.465088	15466.714844	5215.493652	27.804487
463.672424	1315.250977	15339.286133	5113.095215	27.080967
464.028564	1272.016113	15002.508789	4935.604492	26.682135
464.384644	1226.505737	14688.486328	4865.063477	27.028399
464.740723	1322.077637	15127.662109	5006.145996	26.685350
465.096741	1274.291626	14777.232422	4876.440918	26.676777
465.452698	1283.393677	14438.179688	4794.522461	26.690886
465.808655	1180.995239	14754.476563	4942.431152	27.711653
466.164520	1301.597900	14836.395508	5001.594727	27.336920
466.520355	1356.210449	15475.817383	4967.461914	25.576147
466.876190	1287.944824	15691.991211	5069.860352	26.255924
467.231964	1233.332275	15487.194336	5028.900879	26.628351
467.587677	1231.056763	16151.646484	5147.228027	26.246759
467.943390	1290.220337	16240.391602	5231.422363	26.362255
468.299011	1306.148926	15696.542969	4965.186523	25.426945
468.654633	1249.260864	15305.153320	4919.675781	26.112999
469.010223	1278.842651	15448.510742	4812.726563	24.939779
469.365723	1244.709839	14993.406250	4860.512207	26.299236
469.721191	1235.607788	15309.704102	4844.583984	25.642683
470.076660	1299.322388	14831.844727	4651.164551	24.768791
470.432068	1301.597900	14886.457031	4721.705566	25.175879
470.787445	1322.077637	14642.976563	4664.817871	25.093954
471.142792	1278.842651	14656.629883	4721.705566	25.735668
471.498016	1256.087524	15052.570313	4751.287598	25.333996
471.853271	1237.883301	15027.539063	4719.430176	25.247524
472.208496	1283.393677	14790.884766	4769.491699	25.808628
472.563660	1281.118164	15268.744141	4705.776855	24.483488
472.918762	1328.904175	15300.601563	4824.104004	25.016285
473.273865	1301.597900	15560.011719	4890.094238	25.167570
473.628876	1319.802124	16040.146484	4835.481934	23.883135
473.983917	1340.281738	15919.543945	5008.421387	25.159983
474.338837	1262.914063	16169.850586	4853.686035	24.087927
474.693787	1324.353149	15935.472656	4817.277344	23.905933
475.048645	1322.077637	16106.136719	4746.736328	23.164537
475.403503	1299.322388	16192.606445	4792.246582	23.453016
475.758270	1228.781250	16310.933594	4787.695801	23.596861
476.113037	1315.250977	16115.238281	4887.818848	24.138992
476.467773	1260.638550	16545.312500	4703.501465	22.524935
476.822418	1283.393677	17400.908203	5110.819824	23.747000
477.177063	1376.690063	16936.701172	4892.369629	22.594326
477.531647	1310.699951	17639.837891	4983.390625	22.491638
477.886200	1258.363037	18115.421875	5065.309082	22.583691
478.240723	1292.495850	18581.902344	5281.483887	23.071863
478.595184	1292.495850	18836.761719	5388.433105	23.346302
478.949585	1265.189575	18834.486328	5370.229004	23.364849
479.303986	1285.669312	19052.935547	5274.657227	22.451332
479.658325	1226.505737	19075.691406	5267.830566	22.641508
480.012634	1274.291626	19164.435547	5233.697754	22.131773
480.366913	1267.465088	19801.582031	5383.882324	22.209944
480.721130	1292.495850	20309.023438	5488.556152	22.065336
481.075317	1281.118164	20577.535156	5618.260742	22.476414
481.429474	1201.474976	21674.335938	5827.608887	22.596420
481.783569	1274.291626	22630.054688	6043.783203	22.333509
482.137604	1265.189575	23783.744141	6259.957520	22.180677
482.491669	1240.158813	26095.671875	6567.152832	21.431841
482.845612	1294.771362	28352.988281	6967.644531	20.965435
483.199554	1342.557251	31784.474609	7786.832031	21.169083
483.553436	1312.975464	37136.500000	8954.174805	21.330116
483.907318	1310.699951	43430.589844	10351.343750	21.464071
484.261139	1297.046875	49599.527344	11830.432617	21.807133
484.614899	1262.914063	53445.156250	12606.384766	21.738182
484.968628	1297.046875	53638.578125	12447.098633	21.302494
485.322357	1228.781250	51253.832031	11687.075195	20.906113
485.675964	1338.006226	47840.550781	10947.530273	20.664515
486.029572	1265.189575	43598.980469	9921.270508	20.447216
486.383148	1274.291626	40517.921875	9379.696289	20.654066
486.736694	1292.495850	38324.320313	8847.224609	20.400639
487.090149	1317.526489	38149.105469	8594.641602	19.757816
487.443604	1235.607788	39025.183594	8783.510742	19.973505
487.796997	1283.393677	40593.015625	9042.919922	19.739510
488.150360	1228.781250	41824.074219	9513.952148	20.409191
488.503693	1281.118164	42527.207031	9356.941406	19.579609
488.856964	1253.812012	42363.371094	9236.338867	19.417690
489.210175	1262.914063	40078.746094	8731.172852	19.240238
489.563416	1285.669312	37564.296875	8107.680664	18.804491
489.916565	1233.332275	35600.523438	7675.331543	18.744619
490.269653	1303.873413	33422.847656	7318.074707	18.724760
490.622772	1283.393677	32555.876953	6997.226563	18.271120
490.975769	1312.975464	31993.822266	6869.797363	18.111696
491.328735	1308.424438	33224.878906	7040.461426	17.959505
491.681732	1285.669312	35063.500000	7370.412109	18.014011
492.034607	1385.792114	37218.417969	7613.892578	17.381090
492.387482	1276.567139	38679.300781	7818.689453	17.491026
492.740326	1265.189575	37445.968750	7732.219727	17.874216
493.093079	1221.954712	36148.921875	7199.748047	17.115122
493.445862	1206.026001	33188.472656	6824.287109	17.566702
493.798523	1244.709839	30598.927734	6193.967773	16.860466
494.151215	1231.056763	28186.876953	5923.180664	17.406719
494.503815	1308.424438	26232.203125	5504.484863	16.835571
494.856384	1224.230225	24721.257813	5108.544434	16.531088
495.208923	1158.240112	23590.324219	5031.176270	17.265163
495.561432	1274.291626	22887.187500	4851.410156	16.550852
495.913879	1244.709839	22680.115234	4755.838379	16.380041
496.266296	1342.557251	22429.808594	4758.113770	16.197258
496.618683	1278.842651	22650.533203	4753.562988	16.258518
496.970978	1265.189575	23260.373047	4767.216309	15.921789
497.323273	1265.189575	23301.332031	4705.776855	15.613383
497.675507	1251.536499	23330.914063	4723.980957	15.727094
498.027710	1256.087524	23674.517578	4915.125000	16.321560
498.379852	1292.495850	23333.189453	4819.553223	16.002480
498.731995	1240.158813	23016.892578	4630.685059	15.569489
499.084076	1233.332275	22625.503906	4507.806641	15.306881
499.436096	1328.904175	22416.156250	4510.082031	15.085786
499.788086	1265.189575	21931.468750	4444.092285	15.382076
500.140106	1281.118164	21419.476563	4362.173340	15.299435
500.491943	1265.189575	21059.945313	4298.458984	15.323602
500.843842	1246.985352	20868.800781	4164.203125	14.867216
501.195679	1287.944824	20522.921875	4000.365479	14.101502
501.547455	1237.883301	20181.593750	3968.508301	14.414414
501.899231	1158.240112	20088.296875	4066.355713	15.362425
502.250885	1297.046875	19680.978516	3897.967041	14.147791
502.602600	1278.842651	19781.101563	3872.936523	14.020416
502.954193	1351.659302	19635.468750	3913.895752	14.013690
503.305786	1356.210449	19824.337891	3941.202148	13.997044
503.657379	1262.914063	19576.304688	3786.466553	13.779821
504.008820	1292.495850	19819.787109	3775.089111	13.399656
504.360291	1322.077637	19933.562500	3793.293213	13.277907
504.711700	1326.628662	20202.074219	3781.915527	13.007835
505.063080	1267.465088	20202.074219	3756.884766	13.147457
505.414368	1235.607788	19915.357422	3804.670898	13.753198
505.765656	1319.802124	19906.255859	3608.976074	12.316357
506.116943	1340.281738	19910.806641	3718.200928	12.804803
506.468109	1267.465088	19626.367188	3604.425049	12.729301
506.819305	1281.118164	19701.458984	3722.751953	13.255096
507.170410	1319.802124	19708.285156	3613.527100	12.473705
507.521484	1301.597900	19740.142578	3568.016602	12.291744
507.872559	1235.607788	19828.888672	3511.128662	12.238404
508.223480	1312.975464	19890.328125	3474.720215	11.636451
508.574493	1246.985352	20117.878906	3590.771729	12.420113
508.925385	1290.220337	20229.380859	3629.455566	12.351315
509.276245	1278.842651	20370.462891	3659.037354	12.467222
509.627045	1326.628662	20755.025391	3597.598389	11.688920
509.977814	1356.210449	21071.322266	3661.312988	11.692060
510.328613	1244.709839	21276.119141	3665.864014	12.086789
510.679260	1274.291626	21203.302734	3504.302002	11.189769
511.029999	1276.567139	21619.722656	3627.180176	11.554810
511.380585	1319.802124	21551.457031	3552.087891	11.033628
511.731140	1290.220337	21674.335938	3556.638916	11.118552
512.081726	1246.985352	21806.316406	3579.394287	11.344770
512.432129	1265.189575	22329.685547	3488.373291	10.554174
512.782654	1276.567139	22354.716797	3404.179199	10.093922
513.133057	1196.923950	22693.769531	3640.833252	11.368688
513.483398	1292.495850	22554.962891	3502.026611	10.391695
513.833801	1290.220337	22766.585938	3597.598389	10.743801
514.183960	1221.954712	21949.673828	3388.250488	10.451202
514.534302	1221.954712	22077.103516	3433.760986	10.605564
514.884460	1260.638550	21917.816406	3385.974854	10.288610
515.234619	1276.567139	22036.142578	3345.015625	9.963828
515.584717	1244.709839	21546.906250	3310.882813	10.177090
515.934753	1272.016113	21924.642578	3265.372314	9.651829
516.284851	1283.393677	21936.021484	3258.545898	9.563685
516.634766	1351.659302	22265.970703	3247.168213	9.063215
516.984741	1260.638550	22325.134766	3338.188965	9.862805
517.334595	1242.434326	23080.607422	3324.535889	9.534229
517.684448	1317.526489	24104.591797	3351.842041	8.927502
518.034363	1269.740601	24448.195313	3465.618164	9.473787
518.384094	1244.709839	25312.892578	3438.312012	9.114116
518.733826	1217.403687	26919.410156	3515.679688	8.942010
519.083496	1246.985352	27442.781250	3604.425049	8.999305
519.433167	1281.118164	27818.242188	3593.047363	8.712056
519.782776	1306.148926	27638.476563	3470.169189	8.218112
520.132324	1331.179688	27369.964844	3456.516113	8.162195
520.481873	1251.536499	26696.410156	3395.077148	8.424253
520.831299	1285.669312	25836.263672	3169.800537	7.674483
521.180786	1292.495850	25551.822266	3235.790527	8.010506
521.530151	1249.260864	24982.943359	3208.484375	8.255034
521.879517	1260.638550	24830.482422	3156.147461	8.042093
522.228882	1333.455200	24853.238281	3181.177979	7.856037
522.578064	1276.567139	24018.121094	3119.739014	8.104863
522.927307	1297.046875	24514.185547	2978.656738	7.242968
523.276489	1256.087524	24109.142578	3026.442627	7.746689
523.625610	1303.873413	24650.716797	2971.830078	7.144249
523.974792	1240.158813	25053.484375	2873.982666	6.860964
524.323792	1215.128052	25426.669922	2976.381104	7.274436
524.672852	1237.883301	25956.865234	3028.718262	7.244776
525.021790	1285.669312	26791.982422	3046.922363	6.905165
525.370728	1258.363037	27806.863281	3151.596191	7.131225
525.719604	1260.638550	29531.708984	3183.453613	6.801352
526.068420	1256.087524	30712.705078	3288.127441	6.898416
526.417297	1312.975464	32453.478516	3181.177979	5.999269
526.765991	1272.016113	32951.816406	3376.872803	6.644160
527.114746	1285.669312	34346.710938	3385.974854	6.352811
527.463379	1253.812012	35170.449219	3413.281250	6.366991
527.812012	1244.709839	37238.898438	3438.312012	6.094323
528.160706	1340.281738	40194.800781	3661.312988	5.973646
528.509155	1240.158813	44561.523438	3888.864990	6.114088
528.857727	1231.056763	49645.039063	4328.040527	6.396879
529.206177	1233.332275	53058.320313	4519.184082	6.340285
529.554565	1265.189575	53385.992188	4471.398438	6.151496
529.902893	1285.669312	52464.406250	4255.224121	5.802321
530.251221	1269.740601	50284.457031	4034.498291	5.640669
530.599548	1267.465088	45756.171875	3813.772949	5.723493
530.947876	1267.465088	42800.269531	3629.455566	5.687048
531.296021	1328.904175	39412.019531	3438.312012	5.538958
531.644165	1274.291626	36806.550781	3249.443604	5.558757
531.992249	1358.485962	35138.593750	3142.494141	5.281239
532.340454	1290.220337	33980.351563	2958.177002	5.102325
532.688354	1231.056763	34019.035156	2971.830078	5.309182
533.036438	1290.220337	34681.210938	2839.849854	4.640861
533.384338	1372.139038	36720.078125	3096.983887	4.879620
533.732239	1303.873413	38954.640625	3092.432861	4.750393
534.080139	1308.424438	39666.878906	3188.004639	4.900042
534.427917	1246.985352	39277.765625	3071.953125	4.798660
534.775757	1292.495850	37582.500000	3012.789551	4.740407
535.123474	1294.771362	35686.992188	2917.217773	4.717481
535.471191	1253.812012	33914.363281	2805.717041	4.751619
535.818848	1233.332275	32448.925781	2730.625000	4.796618
536.166382	1267.465088	31852.740234	2673.737061	4.597873
536.513977	1294.771362	31500.035156	2669.185791	4.550248
536.861511	1258.363037	31695.728516	2603.195801	4.418361
537.208984	1347.108276	31741.240234	2594.093750	4.102718
537.556396	1317.526489	31659.320313	2559.960938	4.094796
537.903809	1251.536499	31079.062500	2584.991699	4.470552
538.251160	1276.567139	30391.855469	2464.388916	4.079718
538.598389	1203.750488	29081.156250	2412.052002	4.334340
538.945740	1276.567139	28202.804688	2387.021240	4.124060
539.292969	1246.985352	28007.109375	2396.123291	4.294218
539.640137	1228.781250	27071.871094	2330.133301	4.261689
539.987244	1317.526489	27693.087891	2357.439453	3.942714
540.334351	1276.567139	28002.558594	2364.266113	4.069817
540.681458	1221.954712	29579.494141	2464.388916	4.381319
541.028442	1246.985352	32319.222656	2466.664551	3.925302
541.375366	1242.434326	35366.144531	2578.165039	3.914377
541.722290	1292.495850	38442.648438	2623.675537	3.583241
542.069153	1256.087524	40012.757813	2614.573486	3.505167
542.416016	1269.740601	40902.488281	2714.696289	3.645863
542.762756	1246.985352	39366.511719	2730.625000	3.892072
543.109558	1317.526489	38388.035156	2598.644775	3.455896
543.456299	1260.638550	36763.312500	2544.032227	3.614921
543.802917	1324.353149	35411.656250	2505.348389	3.464619
544.149536	1240.158813	33677.707031	2380.194824	3.514557
544.496094	1342.557251	31429.494141	2316.480225	3.237029
544.842651	1253.812012	30141.548828	2248.214600	3.442300
545.189148	1276.567139	28560.062500	2202.704102	3.394495
545.535583	1276.567139	27556.556641	2134.438477	3.264352
545.882019	1269.740601	26487.062500	2057.070801	3.122180
546.228333	1294.771362	26425.623047	2170.846924	3.486056
546.574707	1294.771362	26177.591797	2107.132324	3.264746
546.920898	1338.006226	26382.388672	2079.825928	2.962020
547.267212	1303.873413	26047.886719	2041.142212	2.979584
547.613342	1253.812012	26214.000000	2027.489014	3.099644
547.959473	1301.597900	26022.855469	2020.662476	2.908689
548.305664	1219.679199	25428.945313	1954.672363	3.036000
548.651611	1283.393677	24718.982422	1984.254150	2.990582
548.997742	1260.638550	23355.945313	1984.254150	3.274974
549.343689	1196.923950	22602.748047	1879.580200	3.189115
549.689575	1224.230225	21342.109375	1909.161987	3.404592
550.035522	1276.567139	20993.955078	1884.131226	3.081362
550.381287	1317.526489	20145.185547	1824.967651	2.695190
550.727173	1328.904175	19917.632813	1865.927002	2.888970
551.072876	1262.914063	19157.609375	1779.457275	2.886572
551.418640	1283.393677	19419.294922	1788.559326	2.785446
551.764282	1283.393677	19257.732422	1749.875488	2.595266
552.109863	1281.118164	18818.556641	1729.395752	2.556118
552.455505	1283.393677	19194.017578	1743.048950	2.566384
552.801025	1256.087524	19549.000000	1692.987427	2.388356
553.146545	1324.353149	19667.326172	1813.590088	2.667163
553.491943	1342.557251	20133.808594	1747.599976	2.155486
553.837341	1272.016113	19744.693359	1722.569214	2.439024
554.182800	1322.077637	19913.082031	1704.365112	2.056304
554.528015	1206.026001	19574.029297	1747.599976	2.948464
554.873352	1326.628662	19121.201172	1770.355225	2.493606
555.218628	1278.842651	18859.515625	1713.467163	2.472172
555.563721	1267.465088	18597.832031	1663.405762	2.284664
555.908875	1269.740601	18315.666016	1622.446289	2.069149
556.254028	1235.607788	18233.748047	1679.334351	2.610442
556.599121	1333.455200	17776.369141	1738.497925	2.463327
556.944031	1256.087524	17728.582031	1683.885376	2.597044
557.289063	1265.189575	17569.296875	1654.303589	2.386601
557.633972	1260.638550	17664.867188	1645.201538	2.344292
557.978882	1258.363037	17546.541016	1670.232300	2.528639
558.323792	1260.638550	17316.712891	1597.415649	2.097506
558.668518	1281.118164	16982.210938	1642.926025	2.304348
559.013306	1301.597900	17100.539063	1720.293701	2.650151
559.358032	1287.944824	17052.751953	1633.823975	2.193995
559.702637	1233.332275	17125.570313	1599.691162	2.305269
560.047363	1258.363037	17114.191406	1595.140137	2.123996
560.391846	1338.006226	17177.906250	1597.415649	1.637696
560.736450	1299.322388	17155.150391	1633.823975	2.109644
561.080933	1278.842651	17202.937500	1588.313477	1.943412
561.425354	1210.577026	17107.365234	1597.415649	2.433439
561.769775	1212.852539	17161.978516	1665.681274	2.839207
562.114136	1253.812012	17239.345703	1620.170776	2.291815
562.458496	1363.036987	17535.164063	1542.803101	1.111580
562.802673	1274.291626	17339.468750	1629.272949	2.209632
563.146912	1269.740601	17141.498047	1613.344238	2.164875
563.491150	1292.495850	17173.355469	1606.517700	1.977361
563.835266	1326.628662	16741.005859	1595.140137	1.741955
564.179443	1367.588013	16809.271484	1622.446289	1.650457
564.523438	1306.148926	17000.416016	1631.548462	2.073365
564.867493	1303.873413	17266.652344	1565.558350	1.639344
565.211426	1269.740601	17309.886719	1542.803101	1.702369
565.555359	1312.975464	17623.908203	1574.660400	1.604353
565.899231	1240.158813	17730.857422	1640.650513	2.428591
566.243042	1242.434326	18254.228516	1574.660400	1.952916
566.586914	1303.873413	18852.689453	1513.221313	1.192946
566.930603	1315.250977	18832.210938	1554.180664	1.363991
567.274292	1276.567139	18980.119141	1620.170776	1.940874
567.617981	1351.659302	19080.242188	1547.354126	1.103838
567.961609	1338.006226	18734.363281	1601.966675	1.517332
568.305237	1267.465088	18622.861328	1583.762451	1.822473
568.648682	1274.291626	18172.308594	1617.895264	2.033396
568.992188	1267.465088	18083.564453	1640.650513	2.219215
569.335632	1233.332275	18053.982422	1510.945801	1.650433
569.679016	1246.985352	17801.398438	1549.629639	1.828179
570.022461	1224.230225	17626.183594	1488.190552	1.609323
570.365662	1233.332275	17878.767578	1613.344238	2.282980
570.708984	1272.016113	17733.132813	1545.078613	1.658833
571.052185	1272.016113	17903.796875	1561.007324	1.737584
571.395386	1246.985352	18067.634766	1501.843750	1.515152
571.738525	1290.220337	18654.718750	1547.354126	1.480802
572.081604	1287.944824	18679.750000	1556.456177	1.543896
572.424683	1328.904175	18966.466797	1565.558350	1.341762
572.767578	1312.975464	19444.326172	1522.323364	1.154618
573.110596	1292.495850	19298.691406	1611.068726	1.769240
573.453552	1319.802124	19221.324219	1606.517700	1.601627
573.796387	1347.108276	19357.855469	1615.619751	1.490840
574.139282	1228.781250	18779.873047	1504.119263	1.568780
574.481995	1244.709839	18443.095703	1570.109375	1.892035
574.824768	1292.495850	18602.382813	1583.762451	1.682660
575.167480	1281.118164	18748.015625	1549.629639	1.537259
575.510132	1287.944824	18085.839844	1558.731689	1.612029
575.852722	1301.597900	18481.779297	1526.874512	1.311259
576.195251	1224.230225	18236.023438	1642.926025	2.461209
576.537842	1224.230225	18060.808594	1524.598877	1.784024
576.880188	1258.363037	17712.654297	1581.486938	1.963767
577.222717	1249.260864	17425.937500	1556.456177	1.899001
577.565063	1231.056763	17052.751953	1579.211426	2.200489
577.907410	1269.740601	17007.242188	1501.843750	1.474841
578.249756	1240.158813	16558.964844	1488.190552	1.619132
578.591919	1221.954712	16053.798828	1413.098389	1.288738
578.934204	1292.495850	15687.440430	1522.323364	1.596585
579.276306	1281.118164	15473.541016	1501.843750	1.555235
579.618469	1217.403687	15177.723633	1565.558350	2.493887
579.960571	1262.914063	15159.519531	1454.057739	1.375470
580.302551	1251.536499	14674.833984	1533.701050	2.102051
580.644531	1283.393677	14836.395508	1510.945801	1.678980
580.986511	1326.628662	14672.558594	1426.751587	0.750213
581.328369	1367.588013	14799.987305	1465.435425	0.728443
581.670227	1246.985352	14313.025391	1438.129150	1.462905
582.012024	1258.363037	14324.403320	1520.047852	2.002786
582.353821	1297.046875	14099.126953	1465.435425	1.315322
582.695496	1203.750488	14194.699219	1431.302612	1.751620
583.037231	1303.873413	14014.932617	1385.792114	0.644468
583.378845	1240.158813	13926.187500	1495.017212	2.008969
583.720398	1287.944824	13919.360352	1495.017212	1.639344
584.062012	1306.148926	13719.115234	1472.261963	1.338222
584.403442	1322.077637	13946.666992	1454.057739	1.045421
584.744934	1269.740601	13580.308594	1406.271851	1.109057
585.086365	1290.220337	13741.870117	1429.027100	1.114766
585.427734	1235.607788	13901.156250	1467.710938	1.832555
585.768982	1274.291626	13628.093750	1485.915039	1.713023
586.110291	1319.802124	13675.879883	1520.047852	1.620625
586.451599	1274.291626	13512.042969	1485.915039	1.729267
586.792725	1312.975464	13557.552734	1485.915039	1.412377
587.133850	1331.179688	13591.685547	1517.772339	1.521900
587.474915	1312.975464	13589.410156	1497.292725	1.501391
587.815979	1267.465088	13593.960938	1529.150024	2.122947
588.157043	1242.434326	13532.522461	1476.812988	1.907054
588.497925	1249.260864	13691.808594	1451.782227	1.627652
588.838867	1265.189575	13744.145508	1456.333252	1.531728
589.179749	1287.944824	14083.198242	1483.639526	1.529432
589.520569	1183.270874	14049.065430	1467.710938	2.210824
589.861450	1258.363037	14272.066406	1506.394775	1.905927
590.202087	1297.046875	13933.013672	1451.782227	1.224563
590.542847	1269.740601	14087.749023	1472.261963	1.579975
590.883484	1349.383789	14287.995117	1488.190552	1.072810
591.224121	1292.495850	13878.401367	1497.292725	1.627192
591.564636	1224.230225	14171.943359	1465.435425	1.862917
591.905151	1269.740601	13914.809570	1356.210449	0.683823
592.245667	1196.923950	13973.973633	1397.169800	1.567231
592.585999	1249.260864	13746.420898	1438.129150	1.511290
592.926453	1278.842651	13364.133789	1435.853638	1.299191
593.266724	1306.148926	13553.001953	1399.445313	0.761799
593.607056	1342.557251	13678.155273	1358.485962	0.129128
593.947388	1269.740601	13568.930664	1456.333252	1.517113
594.287476	1317.526489	13912.534180	1476.812988	1.264680
594.627686	1333.455200	14103.677734	1490.466064	1.229508
594.967773	1256.087524	13944.391602	1469.986450	1.685796
595.307861	1274.291626	14044.514648	1458.608887	1.443336
595.647888	1276.567139	14394.944336	1401.720825	0.954033
595.987854	1272.016113	14572.435547	1472.261963	1.505560
596.327820	1176.444214	14799.987305	1510.945801	2.455320
596.667725	1278.842651	14997.958008	1554.180664	2.006966
597.007568	1231.056763	15792.114258	1529.150024	2.047195
597.347351	1294.771362	16092.483398	1549.629639	1.722282
597.687073	1269.740601	16342.790039	1497.292725	1.509662
598.026794	1294.771362	16269.973633	1469.986450	1.170035
598.366455	1315.250977	16087.931641	1504.119263	1.278497
598.706116	1283.393677	15626.000977	1460.884399	1.237507
599.045654	1256.087524	15179.999023	1442.680176	1.340088
599.385193	1256.087524	14576.986328	1540.527588	2.135292
599.724731	1333.455200	14046.790039	1483.639526	1.181313
600.064087	1287.944824	13860.197266	1426.751587	1.104072
600.403564	1322.077637	13461.981445	1451.782227	1.068415
600.742920	1303.873413	13245.806641	1392.618774	0.743141
601.082153	1276.567139	13172.990234	1426.751587	1.262434
601.421387	1260.638550	13286.765625	1426.751587	1.381268
601.760620	1322.077637	13061.489258	1431.302612	0.930413
602.099854	1283.393677	13043.285156	1458.608887	1.489939
602.438843	1290.220337	13036.458984	1413.098389	1.046106
602.778015	1269.740601	13275.388672	1456.333252	1.554207
603.117065	1328.904175	13568.930664	1458.608887	1.059677
603.456055	1272.016113	14064.994141	1483.639526	1.654215
603.794983	1260.638550	14319.852539	1499.568237	1.829587
604.133850	1278.842651	14745.375000	1469.986450	1.419399
604.472778	1249.260864	15371.142578	1442.680176	1.369643
604.811584	1278.842651	15694.266602	1526.874512	1.720600
605.150330	1249.260864	16167.575195	1490.466064	1.616840
605.489075	1285.669312	16445.189453	1561.007324	1.816271
605.827698	1306.148926	16374.647461	1463.159912	1.041982
606.166382	1269.740601	16128.891602	1567.833862	2.006126
606.504883	1178.719727	15705.644531	1506.394775	2.255640
606.843445	1272.016113	15182.274414	1394.894287	0.883364
607.181946	1310.699951	14708.966797	1463.159912	1.137908
607.520386	1249.260864	14324.403320	1456.333252	1.583710
607.858826	1299.322388	13967.146484	1504.119263	1.616670
608.197083	1240.158813	13505.215820	1454.057739	1.743970
608.535461	1246.985352	13282.214844	1442.680176	1.626016
608.873718	1285.669312	13500.665039	1463.159912	1.453055
609.211914	1281.118164	13744.145508	1374.414551	0.748585
609.550171	1356.210449	14231.107422	1488.190552	1.025096
609.888245	1301.597900	14367.638672	1440.404663	1.062348
610.226318	1349.383789	14570.160156	1499.568237	1.135973
610.564392	1312.975464	14793.161133	1492.741699	1.333559
610.902344	1303.873413	14715.792969	1467.710938	1.221581
611.240295	1297.046875	14504.169922	1499.568237	1.533425
611.578247	1253.812012	14385.842773	1460.884399	1.576850
611.916138	1285.669312	13989.902344	1397.169800	0.877664
612.253845	1317.526489	13671.329102	1417.649414	0.810462
612.591675	1269.740601	13496.114258	1413.098389	1.172529
612.929382	1290.220337	13038.734375	1442.680176	1.297695
613.267090	1328.904175	12674.650391	1438.129150	0.962695
613.604736	1215.128052	12387.935547	1440.404663	2.016294
613.942261	1328.904175	12328.771484	1415.373901	0.786098
614.279785	1322.077637	12162.658203	1433.578125	1.028547
614.617310	1301.597900	11939.657227	1392.618774	0.855615
614.954712	1281.118164	11914.626953	1465.435425	1.733363
615.292175	1251.536499	11828.157227	1504.119263	2.388124
615.629517	1233.332275	11627.911133	1413.098389	1.729422
615.966797	1256.087524	11762.166992	1506.394775	2.382499
616.304138	1235.607788	11734.860352	1490.466064	2.427394
616.641296	1328.904175	11768.993164	1394.894287	0.632084
616.978516	1308.424438	11507.308594	1358.485962	0.490853
617.315552	1285.669312	11623.360352	1438.129150	1.474796
617.652771	1322.077637	11470.900391	1440.404663	1.165919
617.989685	1269.740601	11480.002930	1476.812988	2.028081
618.326721	1262.914063	11864.565430	1438.129150	1.652715
618.663696	1276.567139	11555.094727	1454.057739	1.726810
619.000549	1256.087524	11703.003906	1392.618774	1.306905
619.337463	1276.567139	11586.952148	1419.924927	1.390421
619.674194	1347.108276	11345.747070	1376.690063	0.295858
620.010986	1331.179688	11539.166016	1438.129150	1.047704
620.347778	1265.189575	11566.472656	1397.169800	1.281202
620.684387	1285.669312	11318.440430	1369.863525	0.839192
621.020996	1297.046875	11502.757813	1390.343262	0.914159
621.357605	1283.393677	11382.155273	1410.822876	1.261830
621.694214	1285.669312	11252.450195	1338.006226	0.525114
622.030579	1285.669312	11206.940430	1385.792114	1.009173
622.367065	1249.260864	11179.633789	1408.547363	1.604033
622.703430	1265.189575	11275.206055	1419.924927	1.545805
623.039795	1253.812012	11120.469727	1424.476074	1.729705
623.376160	1228.781250	11068.132813	1429.027100	2.035153
623.712402	1287.944824	10945.254883	1435.853638	1.531574
624.048645	1246.985352	11079.510742	1429.027100	1.851424
624.384766	1290.220337	10988.490234	1358.485962	0.703895
624.720886	1240.158813	11056.755859	1410.822876	1.738526
625.057007	1253.812012	11084.061523	1328.904175	0.763889
625.392944	1340.281738	11059.031250	1390.343262	0.515103
625.729004	1221.954712	11165.980469	1474.537476	2.540045
626.064941	1260.638550	11313.889648	1492.741699	2.308737
626.400818	1322.077637	11366.226563	1410.822876	0.883552
626.736633	1315.250977	11812.228516	1381.241089	0.628658
627.072449	1224.230225	11912.351563	1438.129150	2.001277
627.408264	1251.536499	12406.139648	1463.159912	1.897184
627.743896	1237.883301	12028.403320	1410.822876	1.602699
628.079590	1251.536499	12094.392578	1483.639526	2.140608
628.415161	1287.944824	11998.821289	1463.159912	1.635861
628.750793	1278.842651	11932.831055	1363.036987	0.790261
629.086365	1174.168701	11803.125977	1438.129150	2.483409
629.421753	1185.546387	11414.012695	1415.373901	2.246940
629.757263	1299.322388	11373.052734	1429.027100	1.287554
630.092651	1317.526489	10983.938477	1383.516602	0.682674
630.427917	1260.638550	11065.857422	1447.231201	1.902993
630.763184	1287.944824	10920.224609	1429.027100	1.464682
631.098511	1292.495850	10863.335938	1417.649414	1.307655
631.433716	1278.842651	10640.334961	1333.455200	0.583374
631.768799	1310.699951	10367.272461	1417.649414	1.180904
632.103943	1287.944824	10258.047852	1390.343262	1.141552
632.438965	1274.291626	10201.160156	1403.996338	1.452970
632.773987	1228.781250	10337.691406	1374.414551	1.598801
633.109070	1317.526489	10319.487305	1381.241089	0.707786
633.443848	1235.607788	10237.568359	1388.067749	1.693631
633.778870	1299.322388	10098.761719	1456.333252	1.784328
634.113708	1290.220337	10301.282227	1338.006226	0.530303
634.448425	1262.914063	10417.333984	1390.343262	1.391996
634.783264	1237.883301	10522.007813	1356.210449	1.274511
635.117859	1269.740601	10276.251953	1406.271851	1.515917
635.452576	1290.220337	10456.018555	1369.863525	0.868917
635.787170	1242.434326	10242.119141	1422.200562	1.997473
636.121704	1240.158813	9821.147461	1388.067749	1.723682
636.456177	1290.220337	10057.801758	1435.853638	1.661043
636.790588	1285.669312	9755.157227	1365.312500	0.940354
637.125122	1265.189575	9673.239258	1413.098389	1.759133
637.459412	1310.699951	9791.566406	1403.996338	1.100081
637.793762	1190.097412	9516.227539	1451.782227	3.142935
638.128052	1240.158813	9306.879883	1369.863525	1.607899
638.462280	1303.873413	9368.319336	1353.934937	0.620768
638.796509	1251.536499	9466.166992	1383.516602	1.606647
639.130615	1292.495850	8915.490234	1440.404663	1.940298
639.464722	1324.353149	9236.338867	1356.210449	0.402646
639.798767	1285.669312	9154.419922	1444.955688	2.024291
640.132751	1281.118164	8872.255859	1426.751587	1.918466
640.466736	1262.914063	9140.766602	1440.404663	2.253033
640.800598	1246.985352	9106.633789	1394.894287	1.881877
641.134521	1285.669312	8961.000977	1419.924927	1.749183
641.468262	1326.628662	8883.632813	1426.751587	1.324902
641.802063	1340.281738	8833.571289	1365.312500	0.334042
642.135803	1237.883301	8678.835938	1415.373901	2.385321
642.469421	1262.914063	8749.377930	1347.108276	1.124619
642.803101	1276.567139	8606.019531	1472.261963	2.669979
643.136658	1260.638550	8722.071289	1422.200562	2.165295
643.470215	1246.985352	8526.375977	1424.476074	2.438263
643.803711	1278.842651	8449.008789	1351.659302	1.015550
644.137085	1217.403687	8464.937500	1335.730713	1.632652
644.470581	1310.699951	8410.325195	1410.822876	1.410257
644.803833	1292.495850	8408.049805	1376.690063	1.183242
645.137207	1228.781250	8385.293945	1363.036987	1.875994
645.470459	1233.332275	8371.640625	1342.557251	1.530124
645.803589	1253.812012	8367.089844	1388.067749	1.887396
646.136780	1256.087524	8487.692383	1351.659302	1.321585
646.469849	1256.087524	8455.834961	1392.618774	1.896334
646.802979	1290.220337	8392.121094	1376.690063	1.217558
647.135986	1190.097412	8553.682617	1353.934937	2.224970
647.468994	1226.505737	8371.640625	1447.231201	3.089171
647.801941	1251.536499	8489.967773	1365.312500	1.571832
648.134766	1203.750488	8362.539063	1338.006226	1.875397
648.467651	1292.495850	8492.243164	1317.526489	0.347660
648.800354	1253.812012	8453.559570	1417.649414	2.275599
649.133179	1265.189575	8514.999023	1451.782227	2.573759
649.465881	1274.291626	8455.834961	1372.139038	1.362484
649.798462	1292.495850	8533.203125	1383.516602	1.257070
650.131104	1256.087524	8451.284180	1372.139038	1.612903
650.463623	1351.659302	8410.325195	1358.485962	0.096713
650.796143	1297.046875	8314.752930	1440.404663	2.042801
651.128662	1278.842651	8360.263672	1383.516602	1.478149
651.461060	1306.148926	8389.844727	1372.139038	0.931577
651.793396	1310.699951	8483.141602	1333.455200	0.317259
652.125732	1269.740601	8355.711914	1392.618774	1.734105
652.458008	1306.148926	8596.917969	1365.312500	0.811486
652.790222	1310.699951	8521.825195	1365.312500	0.757337
653.122437	1326.628662	8387.569336	1390.343262	0.902353
653.454529	1326.628662	8337.507813	1401.720825	1.071081
653.786621	1276.567139	8587.815430	1433.578125	2.147527
654.118713	1244.709839	8398.947266	1381.241089	1.908397
654.450623	1253.812012	8269.242188	1335.730713	1.167693
654.782654	1253.812012	8173.670898	1408.547363	2.236106
655.114502	1242.434326	8182.772949	1399.445313	2.262296
655.446350	1262.914063	8046.241699	1397.169800	1.979202
655.778198	1287.944824	8037.139648	1319.802124	0.472016
656.109863	1276.567139	8030.312988	1426.751587	2.223721
656.441650	1249.260864	8037.139648	1438.129150	2.782434
656.773254	1358.485962	8107.680664	1365.312500	0.101146
657.104919	1276.567139	8203.252930	1342.557251	0.952694
657.436462	1283.393677	8037.139648	1369.863525	1.280324
657.767944	1265.189575	8082.649902	1369.863525	1.535380
658.099548	1303.873413	8182.772949	1376.690063	1.058551
658.430908	1256.087524	8285.170898	1390.343262	1.910003
658.762268	1326.628662	8342.059570	1360.761475	0.486539
659.093628	1251.536499	8526.375977	1353.934937	1.407570
659.424927	1237.883301	8758.479492	1447.231201	2.783661
659.756226	1342.557251	9197.655273	1435.853638	1.187718
660.087341	1267.465088	9300.053711	1454.057739	2.322945
660.418518	1274.291626	9529.880859	1474.537476	2.425579
660.749573	1265.189575	9538.983398	1469.986450	2.475247
661.080627	1276.567139	9279.574219	1429.027100	1.905033
661.411621	1276.567139	9179.451172	1347.108276	0.892600
661.742554	1249.260864	8931.418945	1363.036987	1.481044
662.073547	1319.802124	8844.949219	1376.690063	0.755971
662.404297	1297.046875	8592.366211	1344.832764	0.655021
662.735229	1297.046875	8417.151367	1422.200562	1.757751
663.065979	1226.505737	8492.243164	1388.067749	2.223615
663.396667	1297.046875	8144.088867	1390.343262	1.362579
663.727417	1246.985352	8005.282227	1442.680176	2.895623
664.057922	1185.546387	7707.188965	1447.231201	4.012560
664.388611	1301.597900	7454.605957	1390.343262	1.442309
664.719116	1287.944824	7625.270020	1426.751587	2.190305
665.049622	1203.750488	7595.688477	1401.720825	3.097188
665.380005	1262.914063	7516.045410	1385.792114	1.965064
665.710388	1310.699951	7404.544922	1365.312500	0.896192
666.040771	1294.771362	7522.871582	1344.832764	0.803799
666.371033	1290.220337	7456.881836	1401.720825	1.808118
666.701294	1297.046875	7359.034180	1397.169800	1.651652
667.031555	1283.393677	7338.554688	1394.894287	1.841414
667.361633	1258.363037	7543.351563	1433.578125	2.787835
667.691772	1276.567139	7293.043945	1353.934937	1.285932
668.021790	1215.128052	7447.779785	1388.067749	2.774737
668.351807	1276.567139	7440.953125	1294.771362	0.295313
668.681763	1292.495850	7352.207520	1351.659302	0.976341
669.011719	1319.802124	7370.412109	1353.934937	0.564122
669.341614	1324.353149	7461.432617	1374.414551	0.815720
669.671387	1272.016113	7552.453613	1310.699951	0.615942
670.001221	1306.148926	7436.401855	1353.934937	0.779511
670.330933	1315.250977	7443.228516	1281.118164	-0.557000
670.660583	1294.771362	7552.453613	1413.098389	1.890908
670.990173	1297.046875	7461.432617	1372.139038	1.218161
671.319763	1310.699951	7388.616211	1438.129150	2.096594
671.649292	1283.393677	7320.350586	1369.863525	1.432342
671.978821	1333.455200	7286.217773	1338.006226	0.076452
672.308289	1224.230225	7147.410645	1390.343262	2.804457
672.637695	1244.709839	7108.727051	1378.965576	2.289484
672.966980	1324.353149	7231.604980	1433.578125	1.848998
673.296326	1317.526489	6974.471191	1394.894287	1.367661
673.625610	1294.771362	7076.869629	1413.098389	2.046438
673.954773	1262.914063	7156.512695	1388.067749	2.123553
674.283936	1299.322388	7035.910156	1369.863525	1.229671
674.613037	1210.577026	6992.675293	1365.312500	2.676113
674.942078	1224.230225	6931.236328	1372.139038	2.591706
675.271118	1249.260864	6865.246094	1353.934937	1.863859
675.600098	1315.250977	6938.062988	1367.588013	0.930798
675.928955	1253.812012	6885.726074	1344.832764	1.616160
676.257813	1319.802124	6767.398926	1328.904175	0.167084
676.586670	1292.495850	6767.398926	1392.618774	1.828761
676.915466	1312.975464	6771.949707	1324.353149	0.208422
677.244141	1342.557251	6724.164063	1401.720825	1.099366
677.572876	1226.505737	6769.674316	1340.281738	2.052545
677.901489	1253.812012	6999.501953	1365.312500	1.940594
678.230042	1262.914063	6901.654785	1326.628662	1.129944
678.558594	1306.148926	6997.226563	1333.455200	0.479809
678.887085	1244.709839	6831.113281	1408.547363	2.932791
679.215515	1292.495850	6862.970703	1360.761475	1.225490
679.543945	1249.260864	6858.419922	1381.241089	2.352941
679.872253	1303.873413	6958.542480	1353.934937	0.885313
680.200562	1312.975464	7088.247070	1306.148926	-0.118203
680.528809	1331.179688	7279.391113	1306.148926	-0.420812
680.856995	1235.607788	7472.810547	1367.588013	2.116016
681.185120	1212.852539	7611.617188	1303.873413	1.422476
681.513306	1312.975464	7522.871582	1408.547363	1.539026
681.841309	1390.343262	7625.270020	1388.067749	-0.036496
682.169373	1331.179688	7388.616211	1426.751587	1.577761
682.497314	1285.669312	7422.749023	1365.312500	1.297738
682.825134	1360.761475	7388.616211	1378.965576	0.302000
683.153076	1308.424438	7268.013672	1399.445313	1.527301
683.480896	1249.260864	7063.216797	1365.312500	1.996087
683.808655	1276.567139	7156.512695	1358.485962	1.393190
684.136414	1240.158813	7088.247070	1349.383789	1.867704
684.464050	1221.954712	6922.134277	1224.230225	0.039920
684.791626	1272.016113	6735.541504	1388.067749	2.124116
685.119263	1285.669312	6783.327637	1324.353149	0.703642
685.446838	1287.944824	6665.000488	1299.322388	0.211595
685.774292	1283.393677	6569.428711	1351.659302	1.291433
686.101685	1297.046875	6521.642578	1397.169800	1.916376
686.429077	1285.669312	6494.336426	1392.618774	2.053298
686.756348	1231.056763	6441.999512	1376.690063	2.794759
687.083679	1194.648438	6426.070801	1381.241089	3.566767
687.410950	1276.567139	6441.999512	1385.792114	2.114537
687.738159	1315.250977	6496.611816	1394.894287	1.537112
688.065308	1328.904175	6569.428711	1347.108276	0.347372
688.392395	1265.189575	6587.632813	1394.894287	2.436939
688.719421	1256.087524	6596.734863	1253.812012	-0.042607
689.046448	1276.567139	6594.459473	1317.526489	0.770218
689.373413	1244.709839	6692.306641	1385.792114	2.589808
689.700317	1285.669312	6510.265137	1376.690063	1.742159
690.027100	1290.220337	6298.641602	1324.353149	0.681508
690.353943	1297.046875	6401.040039	1392.618774	1.872493
690.680725	1235.607788	6182.589844	1338.006226	2.069917
691.007446	1308.424438	6325.947754	1367.588013	1.179139
691.334106	1278.842651	6180.314453	1374.414551	1.949861
691.660645	1260.638550	6105.222168	1267.465088	0.140911
691.987244	1308.424438	6021.027832	1303.873413	-0.096571
692.313721	1249.260864	5980.068848	1406.271851	3.318904
692.640259	1253.812012	5914.078613	1338.006226	1.806639
692.966675	1267.465088	5941.384766	1335.730713	1.460565
693.293030	1353.934937	5866.292480	1401.720825	1.059000
693.619324	1228.781250	5807.128906	1351.659302	2.683895
693.945618	1158.240112	5941.384766	1390.343262	4.852522
694.271851	1278.842651	5727.485840	1349.383789	1.585678
694.598083	1283.393677	5663.771484	1360.761475	1.766236
694.924194	1335.730713	5479.454102	1349.383789	0.329488
695.250244	1244.709839	5675.148926	1299.322388	1.232667
695.576294	1242.434326	5600.056641	1372.139038	2.976502
695.902283	1285.669312	5668.322266	1326.628662	0.934579
696.228210	1283.393677	5452.147949	1310.699951	0.655022
696.554138	1319.802124	5766.169922	1335.730713	0.358238
696.879944	1242.434326	5738.863281	1283.393677	0.910931
697.205750	1319.802124	5775.271973	1276.567139	-0.970380
697.531433	1274.291626	5827.608887	1310.699951	0.799600
697.857178	1206.026001	5893.598633	1319.802124	2.427186
698.182739	1256.087524	6032.405762	1369.863525	2.382086
698.508423	1242.434326	6391.937988	1394.894287	2.960673
698.833984	1251.536499	6528.469238	1381.241089	2.457954
699.159485	1272.016113	6753.745605	1347.108276	1.369863
699.484924	1267.465088	6922.134277	1403.996338	2.414487
699.810303	1272.016113	7249.809082	1376.690063	1.751047
700.135681	1226.505737	7158.788574	1331.179688	1.764480
700.460999	1310.699951	7042.736816	1385.792114	1.310043
700.786255	1299.322388	6944.889648	1378.965576	1.410721
701.111450	1246.985352	6696.857910	1376.690063	2.379959
701.436646	1240.158813	6653.623047	1363.036987	2.269862
701.761719	1235.607788	6376.009277	1338.006226	1.992032
702.086792	1244.709839	6139.354980	1272.016113	0.557881
702.411865	1285.669312	5977.792969	1378.965576	1.988359
702.736816	1290.220337	5877.670410	1381.241089	1.984125
703.061646	1287.944824	5697.904297	1369.863525	1.857584
703.386536	1242.434326	5559.097168	1388.067749	3.373750
703.711365	1281.118164	5452.147949	1278.842651	-0.054555
704.036194	1283.393677	5429.392578	1290.220337	0.164657
704.360901	1287.944824	5249.626465	1335.730713	1.206202
704.685547	1237.883301	5131.299316	1278.842651	1.052016
705.010132	1258.363037	5195.014160	1287.944824	0.751445
705.334717	1253.812012	5265.555176	1328.904175	1.871809
705.659302	1246.985352	5097.166504	1287.944824	1.063832
705.983765	1231.056763	4992.492676	1233.332275	0.060496
706.308228	1253.812012	4899.196289	1301.597900	1.310860
706.632568	1178.719727	5101.717773	1328.904175	3.828308
706.956909	1246.985352	4974.288574	1294.771362	1.282053
707.281189	1278.842651	5081.237793	1315.250977	0.957510
707.605408	1262.914063	5038.002930	1385.792114	3.254971
707.929626	1240.158813	4815.001953	1315.250977	2.100572
708.253784	1365.312500	4978.839355	1315.250977	-1.385392
708.577820	1317.526489	4978.839355	1319.802124	0.062154
708.901855	1246.985352	5008.421387	1253.812012	0.181491
709.225830	1312.975464	5131.299316	1303.873413	-0.238378
709.549805	1322.077637	5169.983398	1317.526489	-0.118276
709.873718	1303.873413	5060.758301	1258.363037	-1.211386
710.197510	1242.434326	5058.482910	1297.046875	1.431128
710.521362	1372.139038	5138.125977	1324.353149	-1.268881
710.845093	1331.179688	5024.350098	1353.934937	0.616144
711.168701	1278.842651	5210.942871	1306.148926	0.694445
711.492432	1212.852539	5208.666992	1326.628662	2.847383
711.816040	1246.985352	5261.003906	1385.792114	3.458050
712.139587	1246.985352	5392.984375	1358.485962	2.689354
712.463074	1267.465088	5470.352051	1306.148926	0.920411
712.786499	1226.505737	5438.494629	1333.455200	2.539168
713.109924	1308.424438	5395.259766	1360.761475	1.280625
713.433350	1235.607788	5340.647461	1369.863525	3.270510
713.756592	1340.281738	5301.963379	1294.771362	-1.148764
714.079834	1249.260864	5251.901855	1306.148926	1.421263
714.403015	1272.016113	5119.921875	1306.148926	0.887049
714.726196	1231.056763	5133.574707	1328.904175	2.507289
715.049255	1208.301514	5199.564941	1372.139038	4.104904
715.372375	1274.291626	4956.084473	1383.516602	2.966624
715.695435	1303.873413	4994.768066	1267.465088	-0.986436
716.018311	1260.638550	5069.860352	1306.148926	1.194742
716.341248	1262.914063	5179.085449	1287.944824	0.639164
716.664063	1317.526489	5069.860352	1319.802124	0.060646
716.987000	1256.087524	5126.748535	1347.108276	2.351556
717.309692	1283.393677	5247.351074	1303.873413	0.516649
717.632385	1244.709839	5017.523438	1381.241089	3.618818
717.955078	1281.118164	4896.920898	1358.485962	2.139713
718.277649	1328.904175	4874.165527	1410.822876	2.310653
718.600220	1221.954712	4880.992188	1310.699951	2.425371
718.922791	1219.679199	4758.113770	1326.628662	3.022508
719.245300	1262.914063	4541.939453	1353.934937	2.775851
719.567688	1317.526489	4582.898926	1349.383789	0.975610
719.890015	1335.730713	4512.357910	1363.036987	0.859600
720.212341	1292.495850	4639.787109	1353.934937	1.835487
720.534607	1294.771362	4464.571777	1283.393677	-0.358940
720.856873	1237.883301	4241.570801	1290.220337	1.742426
721.179016	1219.679199	4339.417969	1301.597900	2.625819
721.501160	1340.281738	4250.672852	1367.588013	0.938234
721.823242	1267.465088	4241.570801	1360.761475	3.136956
722.145264	1274.291626	4205.162598	1312.975464	1.319875
722.467224	1303.873413	4214.264648	1276.567139	-0.938234
722.789185	1306.148926	4218.815430	1285.669312	-0.703122
723.111023	1276.567139	4241.570801	1351.659302	2.532616
723.432861	1256.087524	4080.008789	1319.802124	2.256246
723.754578	1240.158813	4070.906738	1322.077637	2.893893
724.076294	1360.761475	4093.661865	1328.904175	-1.165696
724.397949	1319.802124	4125.519043	1308.424438	-0.405518
724.719666	1260.638550	4093.661865	1267.465088	0.240963
725.041260	1215.128052	4118.692871	1358.485962	4.937307
725.362732	1249.260864	4134.621094	1338.006226	3.075711
725.684265	1283.393677	4036.773926	1353.934937	2.561987
726.005676	1290.220337	4107.314941	1303.873413	0.484651
726.327087	1244.709839	4039.049316	1356.210449	3.990232
726.648438	1217.403687	4268.876953	1358.485962	4.623415
726.969666	1269.740601	4196.060547	1410.822876	4.821150
727.290894	1246.985352	4182.407227	1317.526489	2.403100
727.612061	1301.597900	4216.540039	1356.210449	1.873538
727.933228	1294.771362	4225.642090	1306.148926	0.388197
728.254395	1310.699951	4291.632324	1372.139038	2.061069
728.575378	1262.914063	4252.948242	1299.322388	1.217656
728.896301	1265.189575	4394.030762	1363.036987	3.127273
729.217285	1278.842651	4389.479492	1310.699951	1.024141
729.538147	1201.474976	4355.346680	1322.077637	3.823956
729.858948	1290.220337	4446.367676	1422.200562	4.181687
730.179810	1199.199463	4414.510254	1287.944824	2.760087
730.500549	1174.168701	4364.448730	1356.210449	5.706137
730.821228	1285.669312	4412.234863	1353.934937	2.183406
731.141846	1235.607788	4291.632324	1392.618774	5.137753
731.462402	1237.883301	4391.755371	1415.373901	5.627705
731.782898	1262.914063	4366.724609	1385.792114	3.958942
732.103455	1297.046875	4516.908691	1374.414551	2.402826
732.423889	1294.771362	4343.969238	1394.894287	3.283582
732.744263	1276.567139	4259.774902	1390.343262	3.813885
733.064636	1274.291626	4455.469727	1378.965576	3.290415
733.384888	1301.597900	4475.949219	1449.506714	4.659497
733.705200	1199.199463	4405.408203	1322.077637	3.832507
734.025330	1285.669312	4405.408203	1301.597900	0.510574
734.345520	1235.607788	4544.214844	1390.343262	4.676756
734.665527	1301.597900	4296.183105	1338.006226	1.215805
734.985596	1308.424438	4282.530273	1315.250977	0.229532
735.305542	1253.812012	4405.408203	1287.944824	1.083032
735.625549	1308.424438	4287.081055	1367.588013	1.986250
735.945435	1240.158813	4186.958496	1344.832764	3.552123
736.265259	1301.597900	4293.907715	1422.200562	4.030420
736.585083	1301.597900	4155.101074	1324.353149	0.797450
736.904785	1276.567139	4000.365479	1285.669312	0.334172
737.224426	1308.424438	4073.182129	1344.832764	1.316872
737.544128	1256.087524	4000.365479	1378.965576	4.477610
737.863708	1310.699951	3975.334961	1351.659302	1.537147
738.183289	1201.474976	4007.192139	1381.241089	6.407135
738.502808	1294.771362	4105.039551	1403.996338	3.886639
738.822205	1294.771362	3995.814453	1440.404663	5.391743
739.141541	1303.873413	4029.947266	1326.628662	0.834726
739.460938	1287.944824	4004.916504	1383.516602	3.517585
739.780212	1283.393677	4209.713379	1388.067749	3.576987
740.099426	1287.944824	4132.345703	1410.822876	4.319998
740.418640	1299.322388	4118.692871	1415.373901	4.116220
740.737793	1226.505737	4148.274414	1394.894287	5.763240
741.056885	1244.709839	3988.988037	1324.353149	2.902159
741.375977	1290.220337	3934.375488	1278.842651	-0.430296
741.694946	1287.944824	4039.049316	1403.996338	4.218361
742.013855	1208.301514	4023.120850	1374.414551	5.901375
742.332703	1281.118164	3925.273438	1283.393677	0.086058
742.651550	1208.301514	3886.589600	1294.771362	3.228549
742.970398	1267.465088	3800.119629	1410.822876	5.660377
743.289124	1292.495850	3909.344727	1299.322388	0.260869
743.607788	1253.812012	3795.568604	1390.343262	5.371531
743.926453	1324.353149	3763.711426	1401.720825	3.171640
744.245056	1219.679199	3843.354736	1399.445313	6.851690
744.563599	1237.883301	3884.313965	1294.771362	2.149615
744.882141	1281.118164	3763.711426	1433.578125	6.141158
745.200500	1260.638550	3634.006836	1433.578125	7.286673
745.518860	1278.842651	3634.006836	1363.036987	3.574882
745.837219	1251.536499	3661.312988	1333.455200	3.399432
746.155518	1276.567139	3586.220703	1297.046875	0.886702
746.473755	1312.975464	3654.486328	1301.597900	-0.485907
746.791992	1283.393677	3588.496338	1367.588013	3.652520
747.110107	1292.495850	3474.720215	1413.098389	5.526587
747.428162	1301.597900	3568.016602	1388.067749	3.815264
747.746216	1285.669312	3608.976074	1326.628662	1.762977
748.064148	1281.118164	3588.496338	1406.271851	5.424065
748.382080	1176.444214	3686.343750	1369.863525	7.706257
748.700073	1242.434326	3693.170166	1424.476074	7.428044
749.017822	1276.567139	3629.455566	1326.628662	2.127662
749.335632	1319.802124	3672.690674	1417.649414	4.158603
749.653320	1294.771362	3654.486328	1442.680176	6.268080
749.971008	1306.148926	3629.455566	1408.547363	4.407444
750.288696	1274.291626	3704.547852	1369.863525	3.932585
750.606262	1278.842651	3813.772949	1403.996338	4.937165
750.923828	1283.393677	3661.312988	1458.608887	7.368425
751.241272	1246.985352	3629.455566	1438.129150	8.022925
751.558716	1260.638550	3699.996826	1501.843750	9.888059
751.876038	1249.260864	3590.771729	1440.404663	8.163268
752.193481	1306.148926	3636.282227	1545.078613	10.253906
752.510681	1281.118164	3615.802490	1435.853638	6.627683
752.827942	1269.740601	3536.159424	1451.782227	8.032126
753.145081	1246.985352	3659.037354	1401.720825	6.415097
753.462219	1285.669312	3608.976074	1465.435425	7.737511
753.779297	1328.904175	3574.843262	1469.986450	6.281661
754.096375	1340.281738	3634.006836	1472.261963	5.753969
754.413330	1203.750488	3570.292236	1463.159912	10.961540
754.730286	1237.883301	3461.067139	1438.129150	9.007166
755.047119	1269.740601	3583.945313	1501.843750	10.029500
755.363892	1276.567139	3454.240479	1415.373901	6.374085
755.680725	1287.944824	3554.363525	1517.772339	10.140558
755.997498	1276.567139	3360.944336	1488.190552	10.152837
756.314148	1260.638550	3438.312012	1495.017212	10.762802
756.630737	1235.607788	3411.005615	1449.506714	9.832634
756.947327	1290.220337	3577.118652	1542.803101	11.044774
757.263855	1301.597900	3522.506104	1508.670288	9.323771
757.580261	1242.434326	3385.974854	1540.527588	13.906584
757.896729	1333.455200	3463.342773	1529.150024	9.188035
758.213074	1215.128052	3431.485352	1592.864502	17.043119
758.529419	1269.740601	3506.577637	1588.313477	14.242115
758.845642	1290.220337	3536.159424	1531.425537	10.739615
759.161865	1292.495850	3554.363525	1572.384888	12.374245
759.478149	1310.699951	3608.976074	1647.477051	14.653465
759.794189	1276.567139	3558.914551	1520.047852	10.667995
760.110229	1246.985352	3595.322754	1590.588989	14.631783
760.426270	1208.301514	3604.425049	1556.456177	14.529913
760.742249	1269.740601	3649.935303	1588.313477	13.384319
761.058105	1290.220337	3652.210938	1620.170776	13.969168
761.374023	1199.199463	3652.210938	1599.691162	16.326532
761.689819	1310.699951	3561.189941	1513.221313	8.998990
762.005554	1281.118164	3581.669678	1626.997314	15.034618
762.321289	1299.322388	3563.465576	1656.579102	15.778893
762.636902	1240.158813	3659.037354	1688.436401	18.532455
762.952515	1278.842651	3645.384277	1713.467163	18.365387
763.268127	1299.322388	3715.925537	1743.048950	18.361582
763.583618	1344.832764	3775.089111	1713.467163	15.168540
763.899048	1256.087524	4125.519043	1736.222412	16.732752
764.214478	1287.944824	4398.581543	1772.630737	15.581566
764.529785	1276.567139	4728.532227	1893.233276	17.864206
764.845093	1360.761475	4994.768066	1947.845825	16.155291
765.160400	1297.046875	5001.594727	1950.121338	17.628992
765.475586	1269.740601	4885.542969	1872.753662	16.677158
765.790771	1331.179688	4701.226074	2041.142212	21.066847
766.105835	1349.383789	4514.633301	1834.069824	15.312728
766.420837	1356.210449	4332.591797	1875.029175	17.431190
766.735840	1303.873413	4266.601563	1784.008301	16.205837
767.050842	1322.077637	4105.039551	1852.273926	19.051510
767.365662	1260.638550	3886.589600	1758.977539	18.977467
767.680542	1292.495850	3872.936523	1779.457275	18.871250
767.995300	1235.607788	3795.568604	1706.640625	18.400002
768.309998	1260.638550	3645.384277	1799.937012	22.614508
768.624817	1190.097412	3768.262451	1749.875488	21.712267
768.939392	1267.465088	3579.394287	1804.488037	23.228348
769.254028	1322.077637	3549.812500	1752.151001	19.305410
769.568481	1342.557251	3586.220703	1745.324463	17.951319
769.882935	1312.975464	3467.893799	1781.732788	21.752903
770.197388	1240.158813	3404.179199	1713.467163	21.871714
770.511841	1260.638550	3399.628174	1718.018188	21.382975
770.826172	1299.322388	3249.443604	1699.814087	20.536758
771.140442	1306.148926	3304.056152	1729.395752	21.184509
771.454651	1262.914063	3235.790527	1708.916138	22.606691
771.768860	1212.852539	3258.545898	1738.497925	25.695219
772.082886	1381.241089	3213.035400	1642.926025	14.285716
772.397034	1292.495850	3224.413086	1695.262939	20.848051
772.711060	1299.322388	3313.158203	1720.293701	20.903954
773.025024	1272.016113	3263.096924	1670.232300	20.000002
773.338928	1226.505737	3258.545898	1738.497925	25.195969
773.652771	1228.781250	3162.973877	1731.671387	26.000002
773.966614	1290.220337	3103.810303	1768.079712	26.348810
774.280457	1283.393677	3144.769775	1731.671387	24.083134
774.594116	1274.291626	3169.800537	1718.018188	23.409363
774.907776	1237.883301	3151.596191	1745.324463	26.516054
775.221375	1253.812012	3167.524902	1822.692139	29.726513
775.534912	1310.699951	3185.729004	1749.875488	23.422333
775.848450	1274.291626	3112.912354	1688.436401	22.524754
776.161926	1267.465088	3078.779541	1777.181763	28.140705
776.475342	1299.322388	3101.534912	1818.141113	28.787876
776.788696	1322.077637	3144.769775	1733.946899	22.596754
777.101990	1274.291626	3005.962891	1720.293701	25.755585
777.415283	1301.597900	2987.758789	1661.130127	21.322535
777.728516	1310.699951	3071.953125	1765.804199	25.839798
778.041626	1303.873413	2958.177002	1702.089600	24.071529
778.354736	1262.914063	3005.962891	1702.089600	25.195826
778.667725	1317.526489	3053.749023	1761.253052	25.557011
778.980774	1333.455200	2960.452637	1729.395752	24.335659
779.293640	1210.577026	2974.105713	1745.324463	30.322582
779.606567	1256.087524	2994.585449	1777.181763	29.973820
779.919434	1324.353149	2978.656738	1745.324463	25.447041
780.232239	1333.455200	2901.289063	1715.742676	24.383162
780.544983	1251.536499	2912.666504	1761.253052	30.684929
780.857666	1201.474976	2958.177002	1768.079712	32.253891
781.170227	1233.332275	2958.177002	1758.977539	30.474932
781.482849	1267.465088	2919.493164	1731.671387	28.099176
781.795410	1237.883301	2955.901611	1758.977539	30.331123
782.107910	1297.046875	2792.063965	1736.222412	29.375954
782.420288	1256.087524	2887.635986	1697.538574	27.057182
782.732666	1283.393677	2794.339600	1683.885376	26.506025
783.044983	1265.189575	2730.625000	1663.405762	27.173916
783.357300	1240.158813	2860.329590	1640.650513	24.719105
783.669495	1258.363037	2744.278076	1715.742676	30.781010
783.981689	1281.118164	2787.512939	1656.579102	24.924471
784.293762	1267.465088	2757.931152	1638.375000	24.885498
784.605835	1276.567139	2835.298828	1633.823975	22.919714
784.917908	1258.363037	2764.757813	1674.783325	27.643503
785.229858	1251.536499	2767.033203	1647.477051	26.126123
785.541748	1253.812012	2778.410889	1692.987427	28.805965
785.853577	1285.669312	2757.931152	1692.987427	27.666147
786.165405	1319.802124	2662.359375	1697.538574	28.135593
786.477173	1301.597900	2701.043213	1620.170776	22.764225
786.788879	1260.638550	2685.114502	1629.272949	25.878597
787.100525	1242.434326	2671.461426	1686.160889	31.050955
787.412109	1308.424438	2644.155273	1626.997314	23.850080
787.723694	1242.434326	2678.288086	1592.864502	24.405701
788.035156	1262.914063	2666.910400	1654.303589	27.876820
788.346558	1272.016113	2810.268311	1731.671387	29.881659
788.658081	1260.638550	2798.890625	1688.436401	27.810646
788.969360	1292.495850	2739.727051	1749.875488	31.603771
789.280640	1258.363037	2780.686523	1704.365112	29.297457
789.591919	1331.179688	2869.431641	1624.721802	19.082836
789.903076	1310.699951	2926.319824	1749.875488	27.183098
790.214172	1292.495850	2883.084961	1758.977539	29.327604
790.525269	1301.597900	2812.543701	1713.467163	27.259037
790.836365	1276.567139	2876.258301	1718.018188	27.596018
791.147339	1269.740601	2780.686523	1695.262939	28.162645
791.458191	1315.250977	2694.216553	1702.089600	28.052813
791.769104	1274.291626	2830.747803	1645.201538	23.830412
792.079895	1324.353149	2598.644775	1649.752563	25.535709
792.390686	1262.914063	2671.461426	1642.926025	26.978998
792.701416	1331.179688	2655.532715	1672.507813	25.773197
793.012085	1251.536499	2646.430664	1665.681274	29.690050
793.322693	1240.158813	2694.216553	1597.415649	24.569645
793.633240	1251.536499	2623.675537	1665.681274	30.182421
793.943787	1251.536499	2603.195801	1622.446289	27.441071
794.254272	1217.403687	2628.226563	1561.007324	24.354839
794.564636	1260.638550	2605.471436	1654.303589	29.272413
794.875000	1278.842651	2575.889648	1654.303589	28.947365
795.185303	1262.914063	2619.124512	1649.752563	28.523487
795.495544	1253.812012	2596.369141	1595.140137	25.423733
795.805786	1306.148926	2596.369141	1658.854614	27.336859
796.115906	1376.690063	2612.297852	1597.415649	17.863726
796.426025	1249.260864	2553.134277	1624.721802	28.795813
796.736023	1269.740601	2673.737061	1586.037964	22.528358
797.045959	1262.914063	2739.727051	1699.814087	29.583977
797.355896	1276.567139	2646.430664	1722.569214	32.558140
797.665833	1262.914063	2694.216553	1658.854614	27.662954
797.975708	1285.669312	2773.859863	1658.854614	25.076447
798.285461	1206.026001	2812.543701	1670.232300	28.895187
798.595154	1233.332275	2671.461426	1713.467163	33.386074
798.904846	1262.914063	2644.155273	1642.926025	27.512354
799.214478	1335.730713	2607.746826	1686.160889	27.549192
799.524109	1287.944824	2612.297852	1611.068726	24.398623
799.833557	1262.914063	2694.216553	1597.415649	23.370432
800.143005	1315.250977	2623.675537	1615.619751	22.956522
800.452393	1240.158813	2605.471436	1686.160889	32.666664
800.761780	1274.291626	2646.430664	1615.619751	24.875622
801.071106	1272.016113	2455.286865	1570.109375	25.192312
801.380371	1308.424438	2455.286865	1638.375000	28.769846
801.689575	1319.802124	2537.205811	1654.303589	27.476627
801.998718	1244.709839	2509.899414	1617.895264	29.496405
802.307800	1299.322388	2427.980713	1570.109375	23.991936
802.616882	1312.975464	2448.460449	1549.629639	20.841682
802.925903	1342.557251	2603.195801	1579.211426	18.772564
803.234863	1253.812012	2359.715088	1590.588989	30.452667
803.543701	1274.291626	2387.021240	1567.833862	26.380375
803.852539	1228.781250	2484.868652	1636.099487	32.427540
804.161316	1258.363037	2484.868652	1576.935913	25.974026
804.470032	1317.526489	2348.337402	1636.099487	30.905087
804.778809	1256.087524	2425.705078	1561.007324	26.070044
805.087341	1228.781250	2407.500977	1608.793213	32.239384
805.395935	1244.709839	2375.643799	1661.130127	36.820919
805.704468	1258.363037	2446.184814	1572.384888	26.436781
806.012939	1237.883301	2389.296875	1702.089600	40.316208
806.321350	1299.322388	2455.286865	1611.068726	26.968506
806.629761	1258.363037	2489.419678	1658.854614	32.532345
806.938049	1326.628662	2466.664551	1656.579102	28.942110
807.246277	1299.322388	2423.429688	1597.415649	26.518221
807.554504	1294.771362	2500.797363	1636.099487	28.301888
807.862671	1251.536499	2500.797363	1601.966675	28.051001
808.170715	1260.638550	2357.439453	1617.895264	32.572613
808.478821	1262.914063	2400.674561	1520.047852	22.599993
808.786804	1260.638550	2393.847900	1517.772339	22.690758
809.094727	1274.291626	2355.164063	1626.997314	32.631573
809.402649	1274.291626	2455.286865	1522.323364	21.001925
809.710510	1253.812012	2398.398926	1661.130127	35.586472
810.018311	1385.792114	2466.664551	1601.966675	20.000008
810.326050	1256.087524	2409.776611	1638.375000	33.136093
810.633667	1258.363037	2393.847900	1576.935913	28.056110
810.941345	1242.434326	2368.817139	1567.833862	28.888893
811.248901	1246.985352	2307.378174	1538.252075	27.467813
811.556396	1267.465088	2339.235352	1649.752563	35.668789
811.863892	1283.393677	2334.684326	1567.833862	27.056284
812.171326	1347.108276	2316.480225	1563.282837	22.300476
812.478699	1308.424438	2280.071777	1545.078613	24.355974
812.786011	1228.781250	2250.489990	1545.078613	30.957684
813.093262	1297.046875	2259.592041	1574.660400	28.841610
813.400391	1235.607788	2302.827148	1579.211426	32.196159
813.707642	1331.179688	2216.357178	1479.088501	16.709509
814.014709	1190.097412	2239.112549	1565.558350	35.791756
814.321716	1338.006226	2182.224365	1495.017212	18.598391
814.628723	1249.260864	2327.857666	1535.976563	26.582287
814.935669	1283.393677	2232.285889	1542.803101	27.338135
815.242554	1310.699951	2223.183838	1551.905151	26.433914
815.549438	1274.291626	2236.836914	1506.394775	24.113478
815.856201	1262.914063	2277.796387	1601.966675	33.408070
816.162964	1322.077637	2286.898438	1565.558350	25.235847
816.469604	1206.026001	2275.520752	1601.966675	37.021282
816.776184	1294.771362	2261.867676	1524.598877	23.764698
817.082825	1251.536499	2357.439453	1545.078613	26.543207
817.389343	1212.852539	2346.062012	1579.211426	32.329319
817.695801	1347.108276	2309.653564	1513.221313	17.257685
818.002197	1331.179688	2377.919189	1626.997314	28.260864
818.308533	1319.802124	2311.929199	1579.211426	26.146782
818.614868	1315.250977	2275.520752	1526.874512	22.037926
818.921143	1303.873413	2352.888428	1606.517700	28.850328
819.227356	1297.046875	2225.459229	1604.242188	33.088242
819.533447	1262.914063	2332.408936	1595.140137	31.063831
819.839539	1326.628662	2230.010498	1624.721802	32.997467
820.145569	1281.118164	2409.776611	1599.691162	28.225811
820.451538	1212.852539	2514.450439	1549.629639	25.874128
820.757568	1315.250977	2653.257324	1549.629639	17.517006
821.063416	1226.505737	2641.879639	1768.079712	38.263668
821.369263	1269.740601	2796.614990	1683.885376	27.123697
821.675049	1297.046875	2871.707275	1793.110352	31.502886
821.980713	1265.189575	3017.340576	1815.865601	31.428572
822.286438	1301.597900	3226.688477	1754.426514	23.522457
822.592102	1299.322388	3754.609375	2038.866699	30.120481
822.897583	1310.699951	5192.738281	2487.144287	30.304810
823.203125	1242.434326	7254.360352	3049.197754	30.052990
823.508545	1322.077637	9429.757813	3627.180176	28.431099
823.813965	1258.363037	10540.211914	3929.824463	28.781567
824.119263	1276.567139	10035.046875	3945.753174	30.475451
824.424622	1244.709839	8651.530273	3499.750977	30.445467
824.729858	1292.495850	7363.585449	3081.055176	29.460268
825.035095	1308.424438	6391.937988	2792.063965	29.185316
825.340149	1237.883301	5595.505859	2516.726074	29.347260
825.645264	1308.424438	5106.268555	2434.807373	29.658482
825.950256	1283.393677	4642.062500	2300.551514	30.284552
826.255310	1267.465088	4337.142578	2186.775391	29.948107
826.560242	1308.424438	4200.611328	2061.621826	26.042486
826.865112	1351.659302	3918.446777	2075.274902	28.191488
827.169922	1265.189575	3820.599365	1988.805176	28.317009
827.474670	1333.455200	3677.241699	1970.601074	27.184465
827.779419	1290.220337	4009.467773	2150.367188	31.631796
828.084045	1287.944824	4516.908691	2291.449463	31.078224
828.388672	1356.210449	5024.350098	2361.990479	27.419350
828.693176	1315.250977	5231.422363	2432.531738	28.529924
828.997681	1240.158813	4683.021973	2291.449463	30.535358
829.302124	1210.577026	4346.244629	2084.376953	27.866472
829.606567	1244.709839	3888.864990	1991.080688	28.227194
829.910828	1242.434326	3495.199951	1902.335449	29.292933
830.215149	1287.944824	3313.158203	1861.375977	28.314604
830.519348	1308.424438	3035.544678	1677.058838	21.343876
830.823547	1299.322388	3028.718262	1718.018188	24.210524
831.127686	1240.158813	2848.952148	1708.916138	29.137199
831.431763	1258.363037	2650.981689	1695.262939	31.372543
831.735779	1290.220337	2525.828125	1590.588989	24.309385
832.039734	1299.322388	2559.960938	1636.099487	26.714802
832.343628	1246.985352	2425.705078	1606.517700	30.501938
832.647461	1212.852539	2425.705078	1542.803101	27.204508
832.951233	1272.016113	2402.949951	1551.905151	24.748489
833.255127	1251.536499	2371.092773	1558.731689	27.439013
833.558777	1242.434326	2468.940186	1556.456177	25.602964
833.862366	1260.638550	2537.205811	1540.527588	21.925131
834.165955	1246.985352	2680.563477	1622.446289	26.190475
834.469482	1349.383789	3076.504150	1743.048950	22.793152
834.773010	1312.975464	3347.291016	1909.161987	29.306492
835.076416	1224.230225	3722.751953	1950.121338	29.052824
835.379822	1235.607788	3652.210938	1943.294800	29.284372
835.683105	1299.322388	3542.985840	1929.641602	28.093304
835.986389	1244.709839	3274.474365	1920.539551	33.295967
836.289612	1251.536499	3124.290039	1683.885376	23.086267
836.592773	1253.812012	2930.870850	1736.222412	28.765265
836.895874	1253.812012	2755.655762	1667.956787	27.575756
837.198914	1256.087524	2562.236328	1683.885376	32.752613
837.501892	1317.526489	2498.521729	1636.099487	26.974960
837.804871	1349.383789	2423.429688	1551.905151	18.855932
838.107666	1249.260864	2450.735840	1558.731689	25.757576
838.410583	1299.322388	2355.164063	1583.762451	26.939651
838.713379	1287.944824	2245.938965	1513.221313	23.515434
839.016052	1231.056763	2220.908203	1565.558350	33.793110
839.318787	1294.771362	2041.142212	1524.598877	30.792671
839.621338	1269.740601	2084.376953	1551.905151	34.636871
839.923889	1258.363037	2068.448486	1469.986450	26.123592
840.226440	1249.260864	2123.060791	1435.853638	21.354176
840.528931	1226.505737	2093.479248	1513.221313	33.070858
840.831299	1196.923950	2191.326416	1495.017212	29.977123
841.133606	1278.842651	2311.929199	1520.047852	23.348015
841.435913	1251.536499	2318.755615	1497.292725	23.027719
841.738220	1303.873413	2341.510986	1533.701050	22.149124
842.040405	1249.260864	2154.918213	1515.496826	29.396986
842.342529	1338.006226	2143.540527	1463.159912	15.536730
842.644592	1324.353149	2057.070801	1531.425537	28.260870
842.946594	1258.363037	2034.315552	1479.088501	28.445744
843.248596	1251.536499	2027.489014	1413.098389	20.821106
843.550598	1276.567139	1986.529663	1501.843750	31.730776
843.852478	1258.363037	1918.264038	1467.710938	31.724138
844.154236	1303.873413	1904.610962	1444.955688	23.484844
844.455994	1251.536499	1893.233276	1424.476074	26.950357
844.757690	1294.771362	1843.171875	1319.802124	4.564322
845.059326	1378.965576	1827.243164	1415.373901	8.121826
845.360962	1322.077637	1868.202637	1451.782227	23.749983
845.662476	1312.975464	1752.151001	1335.730713	5.181356
845.963989	1274.291626	1758.977539	1394.894287	24.882643
846.265381	1233.332275	1811.314575	1363.036987	22.440948
846.566772	1292.495850	1859.100464	1365.312500	12.851404
846.868042	1176.444214	1840.896362	1424.476074	37.328777
847.169373	1240.158813	1845.447388	1431.302612	31.578953
847.470581	1265.189575	1840.896362	1390.343262	21.739138
847.771729	1276.567139	1856.824951	1333.455200	9.803928
848.072815	1272.016113	1754.426514	1369.863525	20.283024
848.373901	1281.118164	1733.946899	1360.761475	17.587954
848.674866	1301.597900	1761.253052	1347.108276	9.900983
848.975891	1256.087524	1633.823975	1365.312500	28.915657
849.276794	1287.944824	1706.640625	1363.036987	17.934778
849.577637	1274.291626	1770.355225	1340.281738	13.302752
849.878357	1317.526489	1756.702026	1383.516602	15.025908
850.179077	1365.312500	1809.039063	1344.832764	-4.615396
850.479736	1231.056763	1779.457275	1422.200562	34.854782
850.780396	1274.291626	1706.640625	1406.271851	30.526318
851.080994	1260.638550	1708.916138	1356.210449	21.319803
851.381470	1244.709839	1727.120239	1399.445313	32.075485
851.681946	1285.669312	1788.559326	1388.067749	20.361994
851.982361	1297.046875	1631.548462	1360.761475	19.047623
852.282715	1301.597900	1688.436401	1374.414551	18.823526
852.583008	1235.607788	1756.702026	1372.139038	26.200874
852.883240	1267.465088	1720.293701	1365.312500	21.608046
853.183411	1242.434326	1608.793213	1347.108276	28.571424
853.483521	1324.353149	1713.467163	1331.179688	1.754380
853.783630	1249.260864	1718.018188	1372.139038	26.213600
854.083679	1290.220337	1663.405762	1333.455200	11.585357
854.383667	1281.118164	1711.191650	1388.067749	24.867746
854.683533	1260.638550	1674.783325	1340.281738	19.230761
854.983337	1278.842651	1702.089600	1344.832764	15.591397
855.283203	1256.087524	1749.875488	1403.996338	29.953913
855.582886	1287.944824	1633.823975	1365.312500	22.368412
855.882629	1312.975464	1620.170776	1328.904175	5.185206
856.182312	1315.250977	1706.640625	1349.383789	8.720929
856.481873	1249.260864	1649.752563	1347.108276	24.431820
856.781372	1331.179688	1640.650513	1347.108276	5.147040
857.080872	1349.383789	1665.681274	1372.139038	7.194255
857.380310	1306.148926	1654.303589	1360.761475	15.686290
857.679688	1253.812012	1702.089600	1440.404663	41.624355
857.979004	1260.638550	1713.467163	1344.832764	18.592953
858.278259	1258.363037	1745.324463	1301.597900	8.878499
858.577454	1256.087524	1620.170776	1356.210449	27.500008
858.876648	1338.006226	1679.334351	1363.036987	7.333343
859.175720	1292.495850	1749.875488	1331.179688	8.457708
859.474792	1251.536499	1672.507813	1338.006226	20.540527
859.773743	1217.403687	1724.844727	1338.006226	23.766808
860.072693	1276.567139	1647.477051	1347.108276	19.018402
860.371521	1308.424438	1652.028076	1367.588013	17.218554
860.670349	1244.709839	1654.303589	1424.476074	43.888912
860.969116	1317.526489	1686.160889	1319.802124	0.617315
861.267883	1272.016113	1554.180664	1347.108276	26.612898
861.566589	1269.740601	1706.640625	1372.139038	23.437498
861.865112	1297.046875	1656.579102	1381.241089	23.417709
862.163635	1294.771362	1642.926025	1390.343262	27.450989
862.462158	1315.250977	1649.752563	1358.485962	12.925196
862.760620	1249.260864	1670.232300	1369.863525	28.648657
863.059021	1285.669312	1597.415649	1331.179688	14.598528
863.357361	1262.914063	1688.436401	1294.771362	7.486634
863.655640	1301.597900	1677.058838	1358.485962	15.151526
863.953857	1260.638550	1549.629639	1376.690063	40.157471
864.251953	1212.852539	1661.130127	1292.495850	17.766516
864.550110	1221.954712	1617.895264	1290.220337	17.241383
864.848206	1310.699951	1613.344238	1406.271851	31.578953
865.146179	1281.118164	1626.997314	1338.006226	16.447380
865.444092	1278.842651	1686.160889	1358.485962	19.553093
865.741943	1251.536499	1633.823975	1356.210449	27.380953
866.039795	1276.567139	1729.395752	1315.250977	8.542710
866.337646	1226.505737	1647.477051	1244.709839	4.324309
866.635376	1253.812012	1677.058838	1267.465088	3.225795
866.933044	1233.332275	1695.262939	1290.220337	12.315282
867.230652	1285.669312	1622.446289	1283.393677	-0.675710
867.528198	1283.393677	1688.436401	1328.904175	11.235974
867.825745	1262.914063	1599.691162	1258.363037	-1.351346
868.123230	1287.944824	1638.375000	1349.383789	17.532442
868.420593	1274.291626	1640.650513	1374.414551	27.329193
868.717896	1276.567139	1658.854614	1397.169800	31.547636
869.015198	1265.189575	1649.752563	1390.343262	32.544392
869.312439	1285.669312	1620.170776	1372.139038	25.850328
869.609619	1306.148926	1631.548462	1331.179688	7.692317
869.906738	1249.260864	1718.018188	1388.067749	29.611673
870.203796	1233.332275	1758.977539	1344.832764	21.212116
870.500854	1267.465088	1640.650513	1344.832764	20.731699
870.797791	1297.046875	1611.068726	1308.424438	3.623176
871.094666	1251.536499	1633.823975	1326.628662	19.642853
871.391602	1301.597900	1652.028076	1285.669312	-4.545439
871.688293	1294.771362	1681.609863	1312.975464	4.705866
871.985107	1224.230225	1686.160889	1340.281738	25.123146
872.281738	1301.597900	1681.609863	1237.883301	-16.766472
872.578369	1340.281738	1652.028076	1315.250977	-8.029208
872.874939	1342.557251	1665.681274	1383.516602	12.676046
873.171509	1240.158813	1606.517700	1351.659302	30.434771
873.467957	1290.220337	1674.783325	1299.322388	2.366856
873.764343	1344.832764	1597.415649	1333.455200	-4.504487
874.060669	1235.607788	1613.344238	1401.720825	43.975910
874.356995	1322.077637	1692.987427	1363.036987	11.042941
874.653198	1240.158813	1711.191650	1367.588013	27.053146
874.949463	1267.465088	1636.099487	1381.241089	30.864185
875.245544	1221.954712	1620.170776	1331.179688	27.428572
875.541626	1246.985352	1688.436401	1274.291626	6.185573
875.837646	1201.474976	1667.956787	1381.241089	38.536575
876.133606	1312.975464	1692.987427	1297.046875	-4.191602
876.429565	1338.006226	1649.752563	1260.638550	-24.817509
876.725403	1269.740601	1633.823975	1381.241089	30.624989
877.021179	1294.771362	1667.956787	1351.659302	15.243880
877.316956	1244.709839	1615.619751	1303.873413	15.950929
877.612610	1301.597900	1681.609863	1356.210449	14.371271
877.908203	1208.301514	1647.477051	1347.108276	31.606215
878.203857	1217.403687	1642.926025	1328.904175	26.203205
878.499390	1294.771362	1695.262939	1374.414551	19.886358
878.794800	1347.108276	1667.956787	1349.383789	0.709217
879.090271	1235.607788	1649.752563	1333.455200	23.626379
879.385559	1272.016113	1736.222412	1319.802124	10.294132
879.680847	1192.372925	1715.742676	1324.353149	25.217396
879.976196	1285.669312	1708.916138	1392.618774	25.268816
880.271301	1278.842651	1845.447388	1410.822876	23.293173
880.566467	1265.189575	1838.620850	1449.506714	32.142849
880.861572	1215.128052	1847.722900	1456.333252	38.129490
881.156555	1322.077637	1975.152100	1444.955688	18.815321
881.451477	1283.393677	2227.734863	1501.843750	23.132536
881.746460	1226.505737	2509.899414	1615.619751	30.319147
882.041321	1326.628662	3169.800537	1761.253052	23.580242
882.336121	1274.291626	4039.049316	2007.009399	26.502060
882.630798	1283.393677	4569.245605	2161.744873	26.731306
882.925537	1246.985352	4821.828613	2157.193604	25.461487
883.220215	1306.148926	4651.164551	2191.326416	26.462582
883.514771	1215.128052	4309.836426	2038.866699	26.617649
883.809326	1299.322388	3973.059326	1950.121338	24.340427
884.103760	1285.669312	3643.108887	1929.641602	27.316599
884.398132	1260.638550	3552.087891	1836.345337	25.124134
884.692505	1226.505737	3192.555664	1822.692139	30.324072
884.986816	1278.842651	3067.402100	1770.355225	27.480919
885.281067	1312.975464	3065.126465	1665.681274	20.129875
885.575256	1251.536499	2826.196777	1683.885376	27.456644
885.869385	1328.904175	2562.236328	1524.598877	15.867153
886.163452	1301.597900	2380.194824	1479.088501	16.455692
886.457458	1253.812012	2211.806152	1501.843750	25.890736
886.751465	1281.118164	2179.948975	1467.710938	20.759499
887.045410	1283.393677	2032.040039	1369.863525	11.550159
887.339233	1240.158813	2082.101563	1495.017212	30.270277
887.632996	1221.954712	1975.152100	1429.027100	27.492447
887.926758	1297.046875	1927.366089	1440.404663	22.743681
888.220398	1274.291626	1802.212524	1417.649414	27.155165
888.514099	1269.740601	1784.008301	1413.098389	27.876102
888.807678	1294.771362	1774.906250	1406.271851	23.222742
889.101196	1299.322388	1768.079712	1363.036987	13.592236
889.394653	1324.353149	1715.742676	1326.628662	0.581393
889.688049	1251.536499	1588.313477	1374.414551	36.486477
889.981384	1272.016113	1736.222412	1319.802124	10.294132
890.274719	1310.699951	1622.446289	1324.353149	4.379586
890.567932	1256.087524	1679.334351	1358.485962	24.193552
>>>>>End Processed Spectral Data<<<<<
