Jaz Data File
++++++++++++++++++++++++++++++++++++
Date: Wed Feb 07 06:40:20 2024
User: jaz
Dark Spectrum Present: Yes
Reference Spectrum Present: Yes
Processed Spectrum Present: Yes
Spectrometers: JAZA3692
Integration Time (usec): 43100 (JAZA3692)
Spectra Averaged: 1 (JAZA3692)
Boxcar Smoothing: 0 (JAZA3692)
Correct for Electrical Dark: No (JAZA3692)
Strobe/Lamp Enabled: Yes (JAZA3692)
Correct for Detector Non-linearity: No (JAZA3692)
Correct for Stray Light: No (JAZA3692)
Number of Pixels in Processed Spectrum: 2048
>>>>>Begin Processed Spectral Data<<<<<
W	D	R	S	P
190.244385	0.000000	0.000000	0.000000	0.000000
190.627136	0.000000	0.000000	0.000000	0.000000
191.009842	1165.066650	1165.066650	1169.617676	0.000000
191.392532	1169.617676	1219.679199	1158.240112	-22.727161
191.775177	1231.056763	1215.128052	1224.230225	42.856815
192.157791	1199.199463	1258.363037	1158.240112	-69.230690
192.540390	1246.985352	1210.577026	1272.016113	-68.750107
192.922943	1276.567139	1251.536499	1146.862427	518.183777
193.305481	1253.812012	1281.118164	1119.556274	-491.668457
193.687958	1221.954712	1217.403687	1158.240112	1400.005371
194.070419	1253.812012	1246.985352	1217.403687	533.325562
194.452866	1301.597900	1285.669312	1124.107300	1114.289551
194.835251	1262.914063	1274.291626	1260.638550	-20.000000
195.217621	1196.923950	1231.056763	1196.923950	0.000000
195.599960	1256.087524	1228.781250	1174.168701	300.000000
195.982254	1272.016113	1228.781250	1256.087524	36.842003
196.364517	1299.322388	1274.291626	1219.679199	318.181244
196.746750	1242.434326	1201.474976	1221.954712	49.999851
197.128952	1246.985352	1224.230225	1185.546387	270.000549
197.511139	1312.975464	1221.954712	1178.719727	147.500137
197.893280	1256.087524	1290.220337	1178.719727	-226.666931
198.275391	1160.515625	1274.291626	1128.658325	-28.000017
198.657471	1224.230225	1224.230225	1219.679199	0.000000
199.039520	1199.199463	1201.474976	1155.964600	-1900.005371
199.421539	1285.669312	1265.189575	1212.852539	355.555237
199.803513	1358.485962	1306.148926	1246.985352	213.043411
200.185471	1301.597900	1338.006226	1206.026001	-262.500122
200.567383	1165.066650	1278.842651	1217.403687	46.000065
200.949265	1240.158813	1335.730713	1201.474976	-40.476162
201.331131	1212.852539	1299.322388	1190.097412	-26.315678
201.712967	1294.771362	1319.802124	1169.617676	-499.999512
202.094742	1283.393677	1278.842651	1231.056763	1150.002686
202.476517	1253.812012	1324.353149	1178.719727	-106.451767
202.858231	1358.485962	1237.883301	1174.168701	152.830170
203.239944	1267.465088	1253.812012	1231.056763	266.667572
203.621582	1301.597900	1262.914063	1265.189575	94.117668
204.003235	1260.638550	1233.332275	1260.638550	-0.000000
204.384827	1201.474976	1242.434326	1178.719727	-55.555687
204.766388	1249.260864	1315.250977	1155.964600	-141.379150
205.147934	1253.812012	1315.250977	1140.035889	-185.185608
205.529449	1253.812012	1269.740601	1274.291626	128.571426
205.910904	1237.883301	1219.679199	1217.403687	112.500000
206.292343	1242.434326	1217.403687	1217.403687	100.000000
206.673767	1215.128052	1233.332275	1240.158813	137.499756
207.055115	1235.607788	1208.301514	1153.689087	299.999542
207.436462	1180.995239	1215.128052	1208.301514	80.000069
207.817780	1297.046875	1262.914063	1155.964600	413.333282
208.199051	1160.515625	1283.393677	1167.342163	5.555539
208.580307	1235.607788	1274.291626	1128.658325	-276.470673
208.961517	1233.332275	1272.016113	1137.760376	-247.058990
209.342712	1171.893188	1242.434326	1176.444214	6.451591
209.723846	1165.066650	1308.424438	1240.158813	52.380943
210.104965	1196.923950	1240.158813	1196.923950	0.000000
210.486069	1231.056763	1256.087524	1212.852539	-72.727409
210.867111	1253.812012	1344.832764	1133.209351	-132.500183
211.248123	1201.474976	1315.250977	1133.209351	-60.000023
211.629120	1210.577026	1244.709839	1174.168701	-106.666641
212.010071	1237.883301	1322.077637	1226.505737	-13.513454
212.390991	1297.046875	1249.260864	1165.066650	276.190094
212.771881	1242.434326	1301.597900	1137.760376	-176.922958
213.152756	1299.322388	1235.607788	1224.230225	117.857071
213.533569	1292.495850	1294.771362	1199.199463	-4100.016113
213.914368	1203.750488	1369.863525	1203.750488	0.000000
214.295135	1158.240112	1274.291626	1249.260864	78.431335
214.675858	1256.087524	1237.883301	1237.883301	100.000000
215.056549	1233.332275	1310.699951	1228.781250	-5.882334
215.437225	1237.883301	1258.363037	1265.189575	133.333130
215.817841	1217.403687	1251.536499	1167.342163	-146.666855
216.198441	1190.097412	1235.607788	1165.066650	-55.000122
216.579025	1196.923950	1258.363037	1217.403687	33.333401
216.959549	1199.199463	1338.006226	1178.719727	-14.754134
217.340057	1242.434326	1219.679199	1272.016113	-130.000534
217.720535	1224.230225	1169.617676	1183.270874	74.999886
218.100967	1199.199463	1290.220337	1140.035889	-65.000008
218.481369	1183.270874	1258.363037	1203.750488	27.272638
218.861740	1251.536499	1210.577026	1233.332275	44.444477
219.242065	1244.709839	1276.567139	1174.168701	-221.428482
219.622391	1253.812012	1237.883301	1176.444214	485.712860
220.002670	1237.883301	1281.118164	1196.923950	-94.736855
220.382919	1228.781250	1240.158813	1192.372925	-320.001068
220.763123	1249.260864	1290.220337	1206.026001	-105.555222
221.143295	1281.118164	1292.495850	1183.270874	-859.992920
221.523453	1242.434326	1290.220337	1155.964600	-180.951965
221.903549	1226.505737	1290.220337	1180.995239	-71.428680
222.283630	1242.434326	1338.006226	1208.301514	-35.714275
222.663696	1246.985352	1224.230225	1190.097412	250.000534
223.043701	1219.679199	1281.118164	1174.168701	-74.074326
223.423676	1192.372925	1272.016113	1135.484863	-71.428658
223.803635	1219.679199	1215.128052	1194.648438	549.987915
224.183548	1194.648438	1331.179688	1199.199463	3.333321
224.563431	1201.474976	1281.118164	1178.719727	-28.571495
224.943283	1246.985352	1244.709839	1219.679199	1200.000000
225.323105	1192.372925	1340.281738	1151.413574	-27.692299
225.702881	1267.465088	1308.424438	1183.270874	-205.555542
226.082642	1196.923950	1328.904175	1201.474976	3.448263
226.462357	1251.536499	1342.557251	1178.719727	-80.000191
226.842041	1221.954712	1301.597900	1201.474976	-25.714359
227.221695	1281.118164	1333.455200	1190.097412	-173.912704
227.601318	1212.852539	1317.526489	1206.026001	-6.521716
227.980911	1196.923950	1385.792114	1212.852539	8.433707
228.360474	1215.128052	1376.690063	1149.138062	-40.844990
228.739990	1196.923950	1365.312500	1146.862427	-29.729767
229.119476	1221.954712	1456.333252	1246.985352	10.679578
229.498932	1246.985352	1467.710938	1249.260864	1.030924
229.878372	1228.781250	1481.364014	1178.719727	-19.819849
230.257736	1242.434326	1554.180664	1137.760376	-33.576641
230.637115	1192.372925	1542.803101	1196.923950	1.298697
231.016449	1240.158813	1588.313477	1237.883301	-0.653592
231.395737	1278.842651	1549.629639	1151.413574	-47.058788
231.774994	1206.026001	1467.710938	1244.709839	14.782600
232.154221	1219.679199	1424.476074	1201.474976	-8.888917
232.533417	1203.750488	1460.884399	1187.821899	-6.194667
232.912582	1237.883301	1495.017212	1203.750488	-13.274333
233.291702	1240.158813	1513.221313	1237.883301	-0.833330
233.670792	1215.128052	1372.139038	1146.862427	-43.478249
234.049866	1237.883301	1408.547363	1224.230225	-7.999971
234.428894	1276.567139	1444.955688	1203.750488	-43.243233
234.807892	1206.026001	1435.853638	1158.240112	-20.792055
235.186874	1251.536499	1372.139038	1210.577026	-33.962364
235.565781	1194.648438	1433.578125	1180.995239	-5.714316
235.944687	1192.372925	1435.853638	1210.577026	7.476609
236.323547	1201.474976	1449.506714	1206.026001	1.834856
236.702377	1208.301514	1563.282837	1242.434326	9.615382
237.081177	1180.995239	1501.843750	1192.372925	3.546124
237.459946	1322.077637	1474.537476	1244.709839	-50.746346
237.838669	1260.638550	1492.741699	1160.515625	-43.137253
238.217361	1260.638550	1472.261963	1162.791138	-46.236572
238.596039	1219.679199	1458.608887	1190.097412	-12.380960
238.974670	1251.536499	1510.945801	1228.781250	-8.771948
239.353271	1244.709839	1504.119263	1235.607788	-3.508759
239.731842	1199.199463	1447.231201	1169.617676	-11.926614
240.110367	1256.087524	1545.078613	1256.087524	0.000000
240.488876	1228.781250	1522.323364	1133.209351	-32.558155
240.867340	1219.679199	1595.140137	1162.791138	-15.151526
241.245789	1253.812012	1586.037964	1253.812012	0.000000
241.624176	1208.301514	1711.191650	1180.995239	-5.429869
242.002548	1294.771362	1649.752563	1192.372925	-28.846157
242.380890	1292.495850	1822.692139	1219.679199	-13.733904
242.759186	1192.372925	1843.171875	1194.648438	0.349649
243.137451	1251.536499	1934.192627	1174.168701	-11.333348
243.515686	1253.812012	2088.927979	1196.923950	-6.811996
243.893890	1185.546387	2043.417725	1192.372925	0.795753
244.272049	1267.465088	2148.091553	1237.883301	-3.359175
244.650192	1237.883301	2075.274902	1208.301514	-3.532611
245.028290	1221.954712	1895.508789	1237.883301	2.364857
245.406357	1203.750488	1847.722900	1221.954712	2.826864
245.784393	1199.199463	1804.488037	1221.954712	3.759405
246.162384	1251.536499	1843.171875	1287.944824	6.153845
246.540359	1242.434326	1925.090576	1237.883301	-0.666664
246.918289	1240.158813	2002.458252	1165.066650	-9.850743
247.296204	1251.536499	2186.775391	1267.465088	1.703157
247.674057	1215.128052	2464.388916	1299.322388	6.739532
248.051895	1237.883301	2691.941162	1385.792114	10.172141
248.429703	1233.332275	2767.033203	1319.802124	5.637986
248.807465	1285.669312	2839.849854	1283.393677	-0.146420
249.185196	1278.842651	2546.307861	1237.883301	-3.231596
249.562897	1240.158813	2373.368164	1310.699951	6.224899
249.940567	1180.995239	2311.929199	1258.363037	6.841053
250.318192	1174.168701	2102.581299	1251.536499	8.333343
250.695801	1210.577026	2088.927979	1251.536499	4.663224
251.073349	1185.546387	1945.570313	1269.740601	11.077837
251.450882	1235.607788	1927.366089	1269.740601	4.934211
251.828400	1281.118164	1879.580200	1217.403687	-10.646369
252.205872	1251.536499	1931.917114	1192.372925	-8.695659
252.583313	1235.607788	2025.213501	1278.842651	5.475500
252.960693	1185.546387	2091.203613	1183.270874	-0.251255
253.338074	1278.842651	2291.449463	1208.301514	-6.966291
253.715408	1260.638550	2239.112549	1287.944824	2.790700
254.092682	1240.158813	2047.968750	1201.474976	-4.788730
254.469955	1142.311401	1890.957764	1281.118164	18.541033
254.847198	1217.403687	1936.468262	1269.740601	7.278472
255.224365	1215.128052	1913.713013	1267.465088	7.491864
255.601563	1269.740601	1877.304688	1260.638550	-1.498122
255.978683	1256.087524	1802.212524	1178.719727	-14.166683
256.355743	1199.199463	1859.100464	1228.781250	4.482761
256.732819	1251.536499	1890.957764	1192.372925	-9.252675
257.109894	1176.444214	1954.672363	1256.087524	10.233929
257.486877	1226.505737	1909.161987	1176.444214	-7.333343
257.863831	1267.465088	2066.172852	1183.270874	-10.541304
258.240753	1192.372925	2120.785400	1224.230225	3.431374
258.617645	1219.679199	2198.153076	1228.781250	0.930229
258.994507	1110.454102	2280.071777	1281.118164	14.591440
259.371307	1274.291626	2232.285889	1265.189575	-0.950115
259.748108	1162.791138	2509.899414	1262.914063	7.432433
260.124878	1158.240112	2751.104736	1287.944824	8.142859
260.501617	1249.260864	3106.085938	1267.465088	0.980395
260.878296	1297.046875	3319.984863	1283.393677	-0.674919
261.254944	1201.474976	3445.138428	1349.383789	6.592290
261.631561	1199.199463	3299.505127	1281.118164	3.900323
262.008179	1167.342163	3056.024414	1340.281738	9.156627
262.384735	1240.158813	2762.482178	1267.465088	1.793724
262.761261	1237.883301	2503.072998	1283.393677	3.597119
263.137695	1199.199463	2373.368164	1219.679199	1.744190
263.514191	1269.740601	2416.603027	1203.750488	-5.753969
263.890594	1260.638550	2318.755615	1285.669312	2.365595
264.267029	1249.260864	2373.368164	1228.781250	-1.821856
264.643341	1203.750488	2264.143311	1190.097412	-1.287549
265.019653	1226.505737	2191.326416	1290.220337	6.603776
265.395935	1224.230225	2234.561523	1210.577026	-1.351359
265.772217	1231.056763	2193.602051	1240.158813	0.945623
266.148407	1228.781250	2264.143311	1301.597900	7.032965
266.524597	1281.118164	2405.225586	1269.740601	-1.012142
266.900726	1226.505737	2441.633789	1278.842651	4.307111
267.276855	1237.883301	2459.837891	1290.220337	4.283059
267.652924	1228.781250	2580.440674	1274.291626	3.367000
268.028992	1183.270874	2539.481201	1278.842651	7.046973
268.404999	1185.546387	2603.195801	1306.148926	8.507219
268.781006	1224.230225	2589.542725	1287.944824	4.666668
269.156921	1155.964600	2589.542725	1267.465088	7.777775
269.532837	1249.260864	2534.930176	1201.474976	-3.716810
269.908661	1306.148926	2587.267090	1231.056763	-5.861455
270.284546	1269.740601	2571.338623	1299.322388	2.272728
270.660339	1269.740601	2655.532715	1274.291626	0.328406
271.036133	1244.709839	2587.267090	1231.056763	-1.016946
271.411835	1292.495850	2705.594238	1256.087524	-2.576489
271.787537	1183.270874	2858.054199	1256.087524	4.347825
272.163239	1237.883301	3112.912354	1301.597900	3.398059
272.538849	1201.474976	3283.576416	1335.730713	6.448088
272.914459	1215.128052	3324.535889	1331.179688	5.501622
273.290070	1258.363037	3096.983887	1253.812012	-0.247524
273.665588	1169.617676	2990.034424	1353.934937	10.125004
274.041046	1294.771362	2994.585449	1260.638550	-2.008032
274.416565	1203.750488	2912.666504	1265.189575	3.595208
274.791962	1219.679199	2807.992676	1215.128052	-0.286540
275.167389	1274.291626	2796.614990	1244.709839	-1.943200
275.542755	1199.199463	2833.023438	1260.638550	3.760447
275.918060	1206.026001	2769.308838	1344.832764	8.879184
276.293365	1151.413574	2792.063965	1310.699951	9.708734
276.668640	1215.128052	2851.227539	1294.771362	4.867877
277.043854	1256.087524	2864.880615	1267.465088	0.707211
277.419037	1292.495850	2990.034424	1308.424438	0.938334
277.794189	1171.893188	3026.442627	1246.985352	4.049078
278.169312	1228.781250	2967.279053	1344.832764	6.675390
278.544373	1258.363037	2885.360352	1319.802124	3.776226
278.919464	1260.638550	2903.564453	1283.393677	1.385037
279.294464	1226.505737	2924.044189	1385.792114	9.383373
279.669464	1153.689087	2871.707275	1301.597900	8.609269
280.044403	1212.852539	2735.176025	1244.709839	2.092676
280.419312	1206.026001	2919.493164	1319.802124	6.640111
280.794189	1208.301514	2955.901611	1303.873413	5.468751
281.169037	1226.505737	3053.749023	1285.669312	3.237860
281.543854	1235.607788	3087.881836	1356.210449	6.511059
281.918671	1251.536499	3124.290039	1287.944824	1.944107
282.293365	1283.393677	3381.423828	1276.567139	-0.325378
282.668091	1258.363037	3310.882813	1335.730713	3.769400
283.042786	1249.260864	3506.577637	1242.434326	-0.302418
283.417419	1251.536499	3540.710449	1301.597900	2.186876
283.792053	1219.679199	3379.148438	1290.220337	3.266596
284.166595	1249.260864	3333.637939	1358.485962	5.240180
284.541138	1210.577026	3147.045166	1276.567139	3.407756
284.915619	1262.914063	3301.780762	1269.740601	0.334820
285.290100	1283.393677	3363.219727	1344.832764	2.954049
285.664520	1219.679199	3438.312012	1319.802124	4.512821
286.038940	1185.546387	3351.842041	1310.699951	5.777308
286.413300	1228.781250	3604.425049	1287.944824	2.490423
286.787628	1265.189575	3699.996826	1322.077637	2.336450
287.161896	1237.883301	3836.528076	1356.210449	4.553418
287.536194	1180.995239	3870.660889	1342.557251	6.006770
287.910400	1274.291626	3847.905762	1392.618774	4.597703
288.284607	1206.026001	3638.557861	1394.894287	7.764268
288.658752	1253.812012	3340.464600	1299.322388	2.181023
289.032867	1240.158813	3247.168213	1367.588013	6.349208
289.406921	1187.821899	3363.219727	1324.353149	6.276151
289.781006	1190.097412	3447.414063	1333.455200	6.350805
290.154999	1331.179688	3436.036377	1308.424438	-1.081083
290.529022	1240.158813	3615.802490	1365.312500	5.268201
290.902954	1251.536499	3738.680664	1344.832764	3.751140
291.276825	1253.812012	3886.589600	1394.894287	5.358685
291.650757	1201.474976	3866.109863	1299.322388	3.672076
292.024597	1233.332275	3841.079102	1410.822876	6.806282
292.398407	1219.679199	3704.547852	1306.148926	3.479851
292.772156	1242.434326	3670.415039	1333.455200	3.748830
293.145905	1249.260864	3531.608398	1297.046875	2.093722
293.519592	1249.260864	3527.057129	1381.241089	5.794207
293.893280	1281.118164	3563.465576	1388.067749	4.685947
294.266907	1246.985352	3574.843262	1278.842651	1.368524
294.640533	1178.719727	3781.915527	1299.322388	4.632869
295.014069	1169.617676	3988.988037	1392.618774	7.909606
295.387604	1258.363037	4102.764160	1356.210449	3.440001
295.761078	1228.781250	4148.274414	1292.495850	2.182386
296.134552	1226.505737	4029.947266	1303.873413	2.759739
296.507996	1217.403687	4000.365479	1399.445313	6.541291
296.881378	1317.526489	4196.060547	1444.955688	4.426878
297.254730	1244.709839	4341.693848	1403.996338	5.143278
297.628021	1206.026001	4639.787109	1403.996338	5.765408
298.001282	1258.363037	4623.858398	1415.373901	4.665312
298.374573	1253.812012	4705.776855	1363.036987	3.164139
298.747803	1169.617676	4519.184082	1399.445313	6.861414
299.121002	1244.709839	4348.520020	1381.241089	4.398828
299.494141	1162.791138	4120.968262	1399.445313	8.000000
299.867188	1135.484863	4009.467773	1392.618774	8.946954
300.240265	1183.270874	3886.589600	1419.924927	8.754204
300.613312	1287.944824	3936.650879	1365.312500	2.920961
300.986328	1196.923950	3932.099854	1410.822876	7.820299
301.359314	1242.434326	3852.456787	1394.894287	5.841328
301.732239	1206.026001	3786.466553	1385.792114	6.966490
302.105103	1262.914063	3674.966064	1328.904175	2.735849
302.477997	1260.638550	3756.884766	1408.547363	5.925250
302.850830	1185.546387	3963.957275	1408.547363	8.026206
303.223602	1235.607788	3699.996826	1392.618774	6.371193
303.596375	1219.679199	3638.557861	1299.322388	3.292567
303.969116	1219.679199	3613.527100	1294.771362	3.136881
304.341766	1194.648438	3540.710449	1310.699951	4.946651
304.714478	1233.332275	3572.567627	1299.322388	2.821012
305.087067	1242.434326	3581.669678	1447.231201	8.754864
305.459656	1231.056763	3561.189941	1335.730713	4.492187
305.832214	1269.740601	3634.006836	1415.373901	6.159768
306.204681	1297.046875	3438.312012	1333.455200	1.700318
306.577148	1260.638550	3533.883789	1328.904175	3.003003
306.949646	1265.189575	3574.843262	1287.944824	0.985223
307.322021	1281.118164	3608.976074	1306.148926	1.075270
307.694397	1237.883301	3547.536865	1262.914063	1.083745
308.066742	1308.424438	3481.546875	1344.832764	1.675392
308.439026	1253.812012	3586.220703	1340.281738	3.707314
308.811279	1276.567139	3950.304199	1388.067749	4.170216
309.183502	1258.363037	3904.793701	1290.220337	1.203784
309.555695	1242.434326	3954.855225	1369.863525	4.697988
309.927887	1244.709839	3866.109863	1358.485962	4.340281
310.299988	1169.617676	3966.232666	1349.383789	6.427989
310.672058	1162.791138	4020.845215	1433.578125	9.474523
311.044128	1228.781250	4218.815430	1312.975464	2.815828
311.416168	1251.536499	4189.233887	1310.699951	2.013940
311.788147	1171.893188	4011.743164	1310.699951	4.887820
312.160065	1215.128052	4109.590332	1326.628662	3.852205
312.531982	1212.852539	4182.407227	1331.179688	3.984677
312.903870	1208.301514	4050.427002	1358.485962	5.284230
313.275696	1272.016113	3895.691650	1365.312500	3.555942
313.647491	1146.862427	3927.548828	1360.761475	7.692311
314.019318	1240.158813	3841.079102	1338.006226	3.762030
314.391022	1281.118164	3800.119629	1281.118164	0.000000
314.762726	1253.812012	3884.313965	1253.812012	0.000000
315.134369	1242.434326	4048.151611	1290.220337	1.703166
315.505981	1246.985352	4266.601563	1347.108276	3.315750
315.877594	1199.199463	4191.509277	1358.485962	5.323195
316.249146	1187.821899	4189.233887	1317.526489	4.321452
316.620636	1169.617676	4023.120850	1315.250977	5.103667
316.992157	1301.597900	3831.977051	1388.067749	3.417269
317.363586	1287.944824	3699.996826	1292.495850	0.188679
317.735016	1178.719727	3697.721191	1333.455200	6.142731
318.106354	1187.821899	3809.221924	1326.628662	5.295139
318.477722	1208.301514	3763.711426	1297.046875	3.472842
318.849060	1206.026001	3722.751953	1372.139038	6.600362
319.220306	1190.097412	3718.200928	1308.424438	4.680466
319.591522	1199.199463	3861.558838	1347.108276	5.555554
319.962738	1192.372925	3836.528076	1385.792114	7.314971
320.333923	1262.914063	3836.528076	1335.730713	2.829354
320.705017	1294.771362	3731.854004	1403.996338	4.481792
321.076111	1215.128052	3768.262451	1378.965576	6.417113
321.447144	1269.740601	3661.312988	1317.526489	1.998095
321.818176	1258.363037	3695.445801	1215.128052	-1.774047
322.189178	1249.260864	3688.619141	1272.016113	0.932837
322.560120	1276.567139	3809.221924	1310.699951	1.347709
322.931030	1233.332275	3684.068115	1326.628662	3.806872
323.301910	1240.158813	3968.508301	1340.281738	3.669725
323.672729	1237.883301	4068.631104	1310.699951	2.572347
324.043549	1142.311401	4216.540039	1260.638550	3.849003
324.414337	1217.403687	4394.030762	1394.894287	5.587392
324.785095	1208.301514	4475.949219	1297.046875	2.715879
325.155792	1217.403687	4669.368652	1326.628662	3.164139
325.526428	1260.638550	4594.276367	1292.495850	0.955632
325.897034	1226.505737	4546.490723	1292.495850	1.987663
326.267670	1199.199463	4369.000000	1269.740601	2.225413
326.638184	1206.026001	4482.775879	1372.139038	5.069445
327.008728	1258.363037	4469.123047	1285.669312	0.850461
327.379211	1281.118164	4460.020996	1299.322388	0.572657
327.749634	1215.128052	4387.204102	1294.771362	2.510763
328.120026	1199.199463	4143.723145	1322.077637	4.173109
328.490417	1265.189575	4264.326172	1294.771362	0.986343
328.860748	1212.852539	4100.488281	1315.250977	3.546099
329.231079	1276.567139	4150.549805	1276.567139	0.000000
329.601318	1306.148926	4209.713379	1283.393677	-0.783701
329.971558	1203.750488	4350.795898	1317.526489	3.615328
330.341736	1210.577026	4332.591797	1281.118164	2.259475
330.711914	1215.128052	4207.437988	1349.383789	4.486692
331.082062	1212.852539	4250.672852	1235.607788	0.749065
331.452148	1201.474976	4271.152344	1408.547363	6.745738
331.822174	1212.852539	4293.907715	1315.250977	3.323486
332.192200	1183.270874	4321.213867	1278.842651	3.045682
332.562134	1158.240112	4432.714355	1283.393677	3.822097
332.932129	1178.719727	4398.581543	1326.628662	4.593642
333.302063	1274.291626	4623.858398	1315.250977	1.222825
333.671906	1249.260864	4726.256836	1265.189575	0.458117
334.041718	1281.118164	4632.960449	1322.077637	1.221999
334.411499	1169.617676	4926.502441	1292.495850	3.270746
334.781281	1292.495850	4660.266602	1356.210449	1.891892
335.151001	1262.914063	4719.430176	1356.210449	2.699145
335.520721	1203.750488	4560.143555	1378.965576	5.220339
335.890350	1226.505737	4683.021973	1338.006226	3.225806
336.259979	1272.016113	4749.011719	1344.832764	2.094240
336.629547	1233.332275	4719.430176	1326.628662	2.676241
336.999084	1224.230225	4578.347656	1306.148926	2.442333
337.368622	1294.771362	4710.328125	1349.383789	1.598932
337.738098	1244.709839	4698.950684	1338.006226	2.700923
338.107513	1217.403687	4701.226074	1315.250977	2.808619
338.476898	1196.923950	4630.685059	1344.832764	4.307487
338.846252	1226.505737	4712.603516	1378.965576	4.373367
339.215576	1199.199463	4867.338867	1356.210449	4.280398
339.584869	1306.148926	4667.093262	1319.802124	0.406231
339.954132	1169.617676	4696.674805	1269.740601	2.838710
340.323334	1276.567139	4539.664063	1312.975464	1.115760
340.692505	1244.709839	4535.112793	1335.730713	2.766253
341.061646	1233.332275	4537.388672	1283.393677	1.515150
341.430786	1237.883301	4523.735352	1315.250977	2.354570
341.799896	1201.474976	4660.266602	1363.036987	4.671054
342.168915	1199.199463	4717.154785	1319.802124	3.428203
342.537903	1201.474976	4974.288574	1308.424438	2.834740
342.906830	1290.220337	4944.706543	1335.730713	1.245329
343.275757	1210.577026	4956.084473	1317.526489	2.855407
343.644684	1196.923950	4887.818848	1303.873413	2.897657
344.013550	1246.985352	4976.563965	1351.659302	2.806589
344.382355	1237.883301	5204.116211	1367.588013	3.270224
344.751129	1226.505737	5336.096191	1422.200562	4.761906
345.119873	1219.679199	5625.087402	1419.924927	4.545452
345.488586	1187.821899	5827.608887	1290.220337	2.206964
345.857269	1217.403687	6066.538574	1356.210449	2.862506
346.225891	1217.403687	6011.925781	1347.108276	2.705266
346.594482	1258.363037	5973.242188	1360.761475	2.171815
346.963043	1208.301514	5959.588867	1363.036987	3.256706
347.331543	1258.363037	5477.178711	1331.179688	1.725998
347.700043	1294.771362	5540.893066	1292.495850	-0.053590
348.068512	1308.424438	5320.167480	1274.291626	-0.850822
348.436951	1310.699951	5261.003906	1324.353149	0.345624
348.805328	1253.812012	5174.534180	1338.006226	2.147416
349.173645	1215.128052	5067.584961	1347.108276	3.425871
349.541931	1281.118164	5185.912109	1383.516602	2.622377
349.910217	1272.016113	5224.595703	1324.353149	1.324124
350.278473	1240.158813	5386.157715	1367.588013	3.073546
350.646667	1242.434326	5484.005371	1363.036987	2.843349
351.014801	1160.515625	5627.362793	1312.975464	3.413142
351.382935	1258.363037	5631.914063	1356.210449	2.237253
351.751007	1240.158813	5522.688965	1372.139038	3.081828
352.119049	1199.199463	5677.424316	1365.312500	3.709350
352.487091	1171.893188	5593.229980	1349.383789	4.014410
352.855072	1192.372925	5625.087402	1422.200562	5.184806
353.222992	1267.465088	5622.812012	1403.996338	3.134796
353.590881	1299.322388	5795.751465	1338.006226	0.860323
353.958740	1226.505737	6030.129883	1363.036987	2.842255
354.326599	1199.199463	6168.937012	1360.761475	3.250916
354.694397	1242.434326	6319.121094	1422.200562	3.541015
355.062134	1192.372925	6501.163086	1365.312500	3.257608
355.429840	1180.995239	6391.937988	1388.067749	3.973801
355.797516	1201.474976	6494.336426	1401.720825	3.783319
356.165192	1237.883301	6635.418457	1438.129150	3.709950
356.532776	1210.577026	6897.103516	1365.312500	2.721090
356.900360	1130.933838	7156.512695	1449.506714	5.287008
357.267883	1224.230225	7131.482422	1392.618774	2.850539
357.635376	1267.465088	7511.494141	1495.017212	3.644315
358.002808	1242.434326	7932.465332	1429.027100	2.789117
358.370270	1283.393677	8187.323730	1504.119263	3.197100
358.737640	1272.016113	8210.079102	1520.047852	3.574942
359.105011	1253.812012	8091.751953	1520.047852	3.893509
359.472321	1233.332275	7657.127441	1397.169800	2.550479
359.839569	1153.689087	7543.351563	1365.312500	3.311965
360.206787	1231.056763	7584.311035	1485.915039	4.011460
360.574005	1231.056763	7950.669922	1469.986450	3.555706
360.941193	1217.403687	8141.813477	1438.129150	3.187643
361.308319	1258.363037	8699.316406	1476.812988	2.935779
361.675415	1212.852539	9290.951172	1495.017212	3.492959
362.042450	1224.230225	9570.840820	1583.762451	4.307524
362.409424	1283.393677	10344.517578	1601.966675	3.515822
362.776428	1231.056763	10590.273438	1604.242188	3.987357
363.143402	1306.148926	10230.741211	1540.527588	2.626212
363.510284	1231.056763	9579.942383	1501.843750	3.243391
363.877136	1249.260864	8412.600586	1451.782227	2.827192
364.243988	1267.465088	7871.026367	1533.701050	4.031703
364.610779	1242.434326	7663.954102	1403.996338	2.515947
364.977539	1240.158813	7645.750000	1417.649414	2.770870
365.344269	1210.577026	7443.228516	1378.965576	2.701716
365.710938	1226.505737	7204.298828	1388.067749	2.702703
366.077576	1276.567139	7147.410645	1424.476074	2.519381
366.444183	1297.046875	6719.612793	1356.210449	1.091062
366.810760	1219.679199	6890.276855	1401.720825	3.210272
367.177277	1180.995239	7065.492188	1365.312500	3.132252
367.543823	1206.026001	7072.318848	1474.537476	4.577192
367.910248	1235.607788	7099.625000	1374.414551	2.367093
368.276642	1244.709839	7019.981445	1485.915039	4.176517
368.643036	1215.128052	6774.225586	1378.965576	2.947196
369.009399	1267.465088	6890.276855	1472.261963	3.642250
369.375671	1251.536499	6610.387695	1353.934937	1.910828
369.741974	1251.536499	6573.979492	1401.720825	2.821718
370.108215	1183.270874	6665.000488	1388.067749	3.735990
370.474396	1338.006226	6669.551270	1454.057739	2.176696
370.840546	1299.322388	6603.561523	1392.618774	1.758902
371.206665	1228.781250	6892.552734	1476.812988	4.379268
371.572784	1272.016113	6878.899414	1458.608887	3.327923
371.938843	1231.056763	6958.542480	1474.537476	4.251092
372.304840	1242.434326	7151.961914	1422.200562	3.041973
372.670807	1215.128052	7274.839844	1465.435425	4.130681
373.036713	1246.985352	7199.748047	1438.129150	3.211010
373.402649	1244.709839	7022.257324	1472.261963	3.938559
373.768524	1244.709839	6906.205566	1497.292725	4.461416
374.134308	1256.087524	6960.818359	1460.884399	3.589948
374.500122	1244.709839	7056.390137	1440.404663	3.367268
374.865875	1253.812012	7186.094727	1435.853638	3.068661
375.231567	1244.709839	7206.574219	1433.578125	3.167940
375.597260	1160.515625	7247.533691	1501.843750	5.607477
375.962891	1224.230225	7440.953125	1517.772339	4.721815
376.328461	1224.230225	7504.667480	1474.537476	3.985507
376.694031	1253.812012	7816.414063	1524.598877	4.126212
377.059540	1203.750488	8107.680664	1565.558350	5.240607
377.425049	1206.026001	8487.692383	1474.537476	3.687500
377.790497	1196.923950	8774.408203	1513.221313	4.174174
378.155945	1265.189575	8922.317383	1526.874512	3.417534
378.521301	1226.505737	8849.500000	1622.446289	5.194029
378.886597	1235.607788	8797.163086	1576.935913	4.513994
379.251892	1231.056763	8307.926758	1595.140137	5.144695
379.617157	1297.046875	8055.343750	1524.598877	3.367002
379.982422	1158.240112	7823.240723	1488.190552	4.950494
380.347595	1240.158813	7732.219727	1490.466064	3.855590
380.712738	1190.097412	7723.117676	1517.772339	5.015673
381.077820	1196.923950	7709.464355	1586.037964	5.974842
381.442902	1185.546387	7618.443848	1540.527588	5.518217
381.807953	1215.128052	7743.597168	1561.007324	5.298015
382.172974	1244.709839	7679.882813	1549.629639	4.738331
382.537933	1155.964600	7830.066895	1572.384888	6.239345
382.902832	1228.781250	7736.770508	1561.007324	5.104896
383.267700	1212.852539	7732.219727	1538.252075	4.991275
383.632538	1215.128052	8082.649902	1652.028076	6.361829
383.997345	1183.270874	8014.384277	1674.783325	7.195203
384.362152	1258.363037	8180.497070	1690.711914	6.245890
384.726898	1260.638550	8385.293945	1572.384888	4.375599
385.091553	1194.648438	8551.407227	1615.619751	5.722239
385.456238	1196.923950	8433.080078	1656.579102	6.352201
385.820862	1224.230225	8419.426758	1636.099487	5.724226
386.185425	1240.158813	8342.059570	1667.956787	6.023711
386.549988	1210.577026	8435.355469	1715.742676	6.992126
386.914490	1196.923950	8569.611328	1715.742676	7.037037
387.278961	1235.607788	8553.682617	1736.222412	6.840797
387.643372	1203.750488	8890.459961	1904.610962	9.117822
388.007782	1190.097412	8881.357422	1763.528564	7.455621
388.372101	1171.893188	9040.644531	1809.039063	8.097166
388.736450	1240.158813	9140.766602	1806.763550	7.171660
389.100739	1274.291626	8869.980469	1777.181763	6.620731
389.464966	1226.505737	8856.327148	1743.048950	6.770057
389.829163	1196.923950	8733.449219	1786.283813	7.820047
390.193329	1258.363037	8583.264648	1829.518677	7.797451
390.557495	1258.363037	8667.458984	1790.834839	7.186731
390.921570	1303.873413	9015.613281	1836.345337	6.904693
391.285614	1353.934937	9065.674805	1893.233276	6.993212
391.649597	1171.893188	9434.309570	1836.345337	8.041862
392.013550	1180.995239	9752.881836	2063.897461	10.299975
392.377502	1215.128052	10246.669922	2022.937988	8.944319
392.741455	1192.372925	10289.905273	1986.529663	8.729364
393.105316	1224.230225	9975.882813	2032.040039	9.230370
393.469086	1199.199463	9823.422852	2079.825928	10.211082
393.832886	1178.719727	9862.107422	2013.835938	9.617401
394.196655	1233.332275	9702.820313	2141.265137	10.720044
394.560333	1260.638550	9912.168945	2100.305664	9.705418
394.924042	1140.035889	10035.046875	2184.500000	11.742134
395.287659	1180.995239	10016.842773	2132.163086	10.764874
395.651245	1151.413574	9882.586914	2182.224365	11.806096
396.014771	1240.158813	9652.758789	2166.295898	11.008928
396.378296	1246.985352	9418.380859	2077.550537	10.164300
396.741791	1128.658325	9306.879883	2079.825928	11.630494
397.105255	1185.546387	9254.542969	2120.785400	11.590525
397.468628	1272.016113	8910.939453	2086.652588	10.664284
397.832001	1265.189575	9152.144531	2102.581299	10.617427
398.195313	1256.087524	9026.991211	2079.825928	10.600291
398.558624	1199.199463	8986.031250	2138.989502	12.068965
398.921844	1294.771362	8990.583008	2084.376953	10.260200
399.285095	1237.883301	8929.143555	2150.367188	11.863906
399.648254	1199.199463	9202.206055	2136.714111	11.714530
400.011383	1242.434326	9306.879883	2116.234375	10.835216
400.374451	1262.914063	8765.305664	2168.571289	12.071580
400.737549	1240.158813	9143.042969	2191.326416	12.035702
401.100586	1292.495850	9108.910156	2223.183838	11.906841
401.463562	1231.056763	9140.766602	2245.938965	12.830840
401.826508	1210.577026	9420.656250	2377.919189	14.218404
402.189392	1153.689087	9042.919922	2261.867676	14.046725
402.552246	1176.444214	9131.665039	2346.062012	14.702518
402.915070	1294.771362	9213.583984	2346.062012	13.275863
403.277893	1260.638550	9452.513672	2343.786377	13.222221
403.640656	1242.434326	9579.942383	2371.092773	13.537120
404.003326	1201.474976	10000.914063	2462.113525	14.326350
404.366028	1231.056763	9887.137695	2487.144287	14.511042
404.728699	1171.893188	10574.344727	2482.593262	13.939982
405.091248	1278.842651	10603.926758	2630.501953	14.494875
405.453857	1281.118164	10738.182617	2623.675537	14.196343
405.816345	1246.985352	10483.324219	2584.991699	14.486328
406.178833	1249.260864	10405.957031	2646.430664	15.258449
406.541260	1199.199463	10626.682617	2637.328613	15.254645
406.903687	1258.363037	10362.721680	2596.369141	14.696325
407.266052	1224.230225	10148.823242	2610.022461	15.527792
407.628387	1260.638550	10012.291992	2580.440674	15.080604
407.990662	1290.220337	9789.290039	2607.746826	15.502009
408.352905	1265.189575	9832.525391	2666.910400	16.361221
408.715118	1206.026001	10057.801758	2619.124512	15.964012
409.077332	1240.158813	10089.659180	2707.869873	16.585243
409.439484	1174.168701	9953.127930	2714.696289	17.547953
409.801575	1206.026001	9973.607422	2630.501953	16.247080
410.163605	1212.852539	9996.363281	2755.655762	17.564768
410.525635	1201.474976	10428.711914	2762.482178	16.917385
410.887604	1210.577026	10565.243164	2703.318604	15.957188
411.249573	1180.995239	10551.589844	2810.268311	17.387083
411.611481	1235.607788	10565.243164	2796.614990	16.731707
411.973328	1244.709839	10519.732422	2728.349365	15.996075
412.335144	1194.648438	10246.669922	2894.462402	18.778280
412.696930	1206.026001	10155.649414	2785.237549	17.645565
413.058685	1244.709839	10237.568359	2810.268311	17.408909
413.420410	1183.270874	10141.996094	2771.584229	17.729233
413.782104	1210.577026	10351.343750	2871.707275	18.172768
414.143707	1208.301514	10217.088867	2803.441650	17.706491
414.505310	1224.230225	10294.456055	2801.166016	17.385849
414.866852	1203.750488	10442.365234	2894.462402	18.300491
415.228394	1237.883301	10594.825195	2776.135498	16.439690
415.589874	1208.301514	10838.305664	2878.533936	17.344048
415.951324	1217.403687	11122.746094	2807.992676	16.057890
416.312683	1224.230225	11279.756836	3010.513916	17.764198
416.674072	1208.301514	11368.501953	3035.544678	17.984322
417.035370	1178.719727	11784.921875	3067.402100	17.807339
417.396667	1215.128052	11905.524414	3037.820313	17.049810
417.757935	1290.220337	12092.117188	3078.779541	16.557825
418.119141	1294.771362	12731.539063	3087.881836	15.678473
418.480286	1183.270874	12881.723633	3015.064941	15.658430
418.841400	1228.781250	13366.409180	3258.545898	16.722910
419.202484	1244.709839	13887.503906	3301.780762	16.270699
419.563568	1249.260864	14388.118164	3447.414063	16.730171
419.924591	1203.750488	15157.244141	3581.669678	17.041748
420.285553	1262.914063	15409.827148	3568.016602	16.294031
420.646484	1244.709839	16210.810547	3797.844238	17.059448
421.007355	1256.087524	16884.365234	3945.753174	17.210249
421.368225	1219.679199	17639.837891	3995.814453	16.906874
421.729065	1297.046875	18115.421875	4073.182129	16.506561
422.089874	1267.465088	18518.187500	4307.561035	17.623007
422.450592	1262.914063	18575.076172	4177.855957	16.837538
422.811279	1210.577026	18636.515625	4314.387207	17.811436
423.171936	1210.577026	18238.298828	4369.000000	18.548710
423.532593	1246.985352	17846.910156	4298.458984	18.382454
423.893127	1201.474976	18108.593750	4455.469727	19.246298
424.253723	1162.791138	18716.158203	4621.582520	19.704433
424.614197	1233.332275	18522.740234	4623.858398	19.610424
424.974670	1233.332275	18982.394531	4637.511230	19.179485
425.335052	1333.455200	19421.570313	4778.593750	19.046421
425.695496	1183.270874	18304.289063	4553.316895	19.683678
426.055817	1183.270874	18718.433594	4678.470703	19.932520
426.416168	1226.505737	18079.013672	4523.735352	19.565216
426.776398	1192.372925	17391.804688	4576.072266	20.887766
427.136627	1190.097412	16711.423828	4362.173340	20.436888
427.496826	1233.332275	16417.882813	4455.469727	21.219841
427.856995	1174.168701	15971.880859	4237.019531	20.698137
428.217102	1262.914063	15259.642578	4041.324951	19.850431
428.577179	1306.148926	15261.917969	3973.059326	19.109734
428.937195	1221.954712	14916.039063	4143.723145	21.335991
429.297180	1262.914063	14328.954102	3929.824463	20.411007
429.657135	1315.250977	14472.312500	3911.620361	19.733658
430.017059	1210.577026	14540.578125	3950.304199	20.553089
430.376984	1226.505737	14297.097656	3968.508301	20.978411
430.736786	1224.230225	13944.391602	3922.997803	21.216457
431.096588	1249.260864	14074.095703	3836.528076	20.173882
431.456360	1208.301514	14046.790039	3886.589600	20.861397
431.816071	1253.812012	13596.236328	3729.578613	20.058998
432.175781	1171.893188	13821.513672	3897.967041	21.550636
432.535400	1249.260864	13653.125000	3829.701416	20.803520
432.895020	1219.679199	13844.268555	3847.905762	20.818312
433.254578	1276.567139	14096.851563	3891.140625	20.394037
433.614105	1185.546387	14256.137695	4029.947266	21.761837
433.973602	1185.546387	14367.638672	4159.651855	22.561710
434.333038	1231.056763	14620.220703	4237.019531	22.450714
434.692444	1308.424438	14567.883789	4284.805664	22.447231
435.051819	1215.128052	14797.711914	4394.030762	23.404257
435.411133	1208.301514	14984.304688	4403.132813	23.191278
435.770416	1153.689087	14404.046875	4264.326172	23.475874
436.129669	1224.230225	14797.711914	4432.714355	23.637886
436.488861	1210.577026	14413.148438	4480.500488	24.767323
436.848083	1158.240112	14467.761719	4480.500488	24.961531
437.207184	1212.852539	14633.874023	4434.990234	24.008141
437.566254	1194.648438	15009.334961	4815.001953	26.206556
437.925293	1210.577026	14615.669922	4737.634277	26.311321
438.284363	1228.781250	14820.466797	4660.266602	25.246944
438.643311	1206.026001	15284.672852	4885.542969	26.135447
439.002258	1292.495850	15327.908203	4990.217285	26.345655
439.361145	1253.812012	15434.857422	5008.421387	26.476254
439.719971	1306.148926	16260.872070	5281.483887	26.582472
440.078827	1224.230225	16556.689453	5377.055664	27.085188
440.437592	1212.852539	16693.220703	5463.525391	27.458473
440.796295	1269.740601	17098.263672	5568.199219	27.156408
441.155029	1258.363037	18181.412109	6036.956543	28.237192
441.513672	1249.260864	18613.759766	6266.784180	28.895298
441.872253	1194.648438	18415.789063	6280.437500	29.532244
442.230865	1256.087524	17997.093750	6223.549316	29.672422
442.589386	1269.740601	17762.714844	6159.834961	29.649559
442.947876	1153.689087	17644.388672	6050.609863	29.695047
443.306335	1281.118164	17362.224609	5961.864258	29.107115
443.664764	1251.536499	16515.730469	5925.456055	30.620152
444.023102	1237.883301	16918.498047	6039.232422	30.619648
444.381500	1212.852539	16902.568359	5982.344238	30.398840
444.739777	1210.577026	16718.251953	6052.885254	31.225237
445.098022	1210.577026	17025.447266	6291.814941	32.129494
445.456238	1244.709839	17293.958984	6141.630859	30.511839
445.814423	1244.709839	17737.685547	6335.049805	30.863682
446.172577	1244.709839	18317.943359	6596.734863	31.347458
446.530701	1221.954712	19007.425781	6555.775391	29.989765
446.888733	1262.914063	19253.181641	6639.969727	29.888693
447.246765	1324.353149	20233.931641	7158.788574	30.854393
447.604736	1242.434326	19296.416016	6928.960938	31.497353
447.962677	1228.781250	19835.714844	7024.532715	31.148342
448.320587	1185.546387	20293.093750	7085.971680	30.880077
448.678436	1194.648438	19790.205078	7115.553711	31.840431
449.036255	1194.648438	19555.826172	6967.644531	31.441317
449.394043	1233.332275	18208.716797	6676.377930	32.064346
449.751770	1155.964600	18313.390625	6767.398926	32.705574
450.109467	1265.189575	18003.919922	6619.490234	31.987495
450.467163	1246.985352	17712.654297	6426.070801	31.453844
450.824768	1215.128052	17571.572266	6369.182617	31.510851
451.182343	1283.393677	17346.294922	6296.366211	31.208389
451.539886	1162.791138	16715.976563	6046.058594	31.397219
451.897369	1142.311401	16938.976563	6207.620605	32.065685
452.254822	1242.434326	16777.414063	6130.252930	31.463308
452.612274	1187.821899	17359.947266	6191.691895	30.941328
452.969635	1221.954712	17036.824219	6112.048828	30.920864
453.326965	1192.372925	17020.896484	6282.712891	32.159283
453.684326	1192.372925	16861.609375	6143.906250	31.600348
454.041534	1235.607788	16235.840820	5877.670410	30.946602
454.398773	1221.954712	16190.330078	5977.792969	31.772577
454.755951	1233.332275	15771.634766	5736.587891	30.975115
455.113098	1192.372925	15191.376953	5691.077637	32.135891
455.470215	1194.648438	15318.805664	5652.393555	31.561140
455.827240	1221.954712	15455.336914	5675.148926	31.286974
456.184265	1196.923950	14975.202148	5509.035645	31.296450
456.541260	1235.607788	15309.704102	5522.688965	30.460791
456.898193	1208.301514	15241.438477	5606.883301	31.344254
457.255096	1267.465088	15355.214844	5729.761230	31.675007
457.611969	1244.709839	15123.111328	5470.352051	30.447615
457.968781	1210.577026	15546.358398	5593.229980	30.571426
458.325531	1162.791138	15468.990234	5675.148926	31.541277
458.682312	1153.689087	16103.860352	5923.180664	31.902590
459.039001	1178.719727	17029.998047	6080.191406	30.921618
459.395630	1224.230225	18122.248047	6310.019043	30.096956
459.752289	1272.016113	19023.353516	6810.633789	31.201128
460.108856	1185.546387	20518.371094	7229.329590	31.261770
460.465363	1258.363037	21348.935547	7372.687500	30.433798
460.821899	1228.781250	21310.251953	7268.013672	30.073656
461.178345	1281.118164	20634.421875	7272.564453	30.958260
461.534760	1201.474976	20145.185547	7129.206543	31.291290
461.891144	1265.189575	19469.355469	6762.847656	30.200001
462.247467	1265.189575	18468.126953	6562.602051	30.793652
462.603760	1274.291626	18317.943359	6323.672363	29.626167
462.960052	1267.465088	17387.253906	6075.640625	29.827784
463.316254	1187.821899	16854.783203	6002.823730	30.733479
463.672424	1194.648438	16572.617188	5743.414551	29.579760
464.028564	1262.914063	16060.625977	5634.189453	29.540211
464.384644	1256.087524	16140.269531	5568.199219	28.971104
464.740723	1265.189575	16153.921875	5734.312500	30.016813
465.096741	1269.740601	16083.380859	5679.699707	29.769583
465.452698	1212.852539	15944.574219	5545.444336	29.409948
465.808655	1231.056763	16090.208008	5584.127930	29.295557
466.164520	1196.923950	15971.880859	5511.311523	29.200678
466.520355	1215.128052	16570.341797	5782.098145	29.742147
466.876190	1212.852539	16900.292969	5702.455078	28.619089
467.231964	1210.577026	16659.087891	5675.148926	28.899691
467.587677	1242.434326	17318.988281	5893.598633	28.931351
467.943390	1208.301514	17587.500000	6000.548340	29.258129
468.299011	1187.821899	16756.935547	5775.271973	29.465071
468.654633	1190.097412	16677.291016	5711.557129	29.194832
469.010223	1169.617676	16775.138672	5713.832520	29.119276
469.365723	1244.709839	16388.300781	5570.475098	28.564989
469.721191	1206.026001	16700.046875	5418.015137	27.184612
470.076660	1260.638550	15874.033203	5342.922852	27.935223
470.432068	1208.301514	16217.636719	5515.862305	28.699209
470.787445	1167.342163	15839.900391	5381.606934	28.722084
471.142792	1233.332275	15867.207031	5292.861328	27.740629
471.498016	1269.740601	16320.035156	5317.892090	26.897490
471.853271	1228.781250	16069.727539	5306.514648	27.476236
472.208496	1228.781250	16072.003906	5406.637207	28.146555
472.563660	1192.372925	16379.198242	5349.749512	27.374889
472.918762	1210.577026	16613.578125	5436.219238	27.433887
473.273865	1246.985352	16847.955078	5379.331055	26.487749
473.628876	1242.434326	17532.888672	5647.842773	27.042881
473.983917	1212.852539	17476.000000	5695.628418	27.564013
474.338837	1226.505737	17359.947266	5436.219238	26.093090
474.693787	1206.026001	17378.152344	5597.781250	27.156326
475.048645	1251.536499	17082.333984	5529.515625	27.023142
475.403503	1215.128052	17630.734375	5586.403809	26.628782
475.758270	1217.403687	17526.060547	5429.392578	25.826704
476.113037	1244.709839	17252.998047	5472.627441	26.410803
476.467773	1219.679199	17967.511719	5499.933594	25.557066
476.822418	1269.740601	18734.363281	5811.680176	26.006514
477.177063	1208.301514	18440.820313	5718.383789	26.171925
477.531647	1256.087524	19077.966797	5681.975586	24.834015
477.886200	1283.393677	19439.773438	5843.537598	25.115934
478.240723	1274.291626	19863.021484	6016.477051	25.511078
478.595184	1228.781250	19842.541016	6043.783203	25.867971
478.949585	1237.883301	20584.361328	6014.201660	24.688309
479.303986	1176.444214	20584.361328	6121.150879	25.477779
479.658325	1162.791138	21278.394531	6153.008301	24.807693
480.012634	1178.719727	21009.882813	6041.507813	24.520941
480.366913	1217.403687	21628.826172	6291.814941	24.860645
480.721130	1226.505737	22163.572266	6332.774414	24.388653
481.075317	1206.026001	22454.839844	6376.009277	24.330690
481.429474	1187.821899	23765.539063	6612.663574	24.027416
481.783569	1235.607788	24502.808594	6728.714844	23.608799
482.137604	1203.750488	25542.720703	7076.869629	24.130516
482.491669	1272.016113	28334.785156	7547.902344	23.190111
482.845612	1176.444214	30655.816406	7975.700195	23.064451
483.199554	1187.821899	34166.945313	9204.481445	24.308285
483.553436	1215.128052	40363.187500	10237.568359	23.046968
483.907318	1292.495850	47221.609375	11896.422852	23.087593
484.261139	1246.985352	53802.414063	13837.442383	23.956530
484.614899	1253.812012	56687.773438	14629.323242	24.128731
484.968628	1315.250977	56644.539063	14515.546875	23.857700
485.322357	1228.781250	54510.101563	13721.390625	23.446508
485.675964	1249.260864	51294.789063	12765.671875	23.011869
486.029572	1246.985352	47205.679688	11568.748047	22.458780
486.383148	1256.087524	43653.589844	10601.651367	22.042721
486.736694	1235.607788	41107.285156	9953.127930	21.863943
487.090149	1244.709839	41309.804688	9827.974609	21.423298
487.443604	1267.465088	42458.941406	10039.597656	21.295990
487.796997	1119.556274	43940.308594	10353.620117	21.564459
488.150360	1215.128052	45651.500000	10517.457031	20.934044
488.503693	1240.158813	46825.667969	10824.652344	21.025307
488.856964	1262.914063	45480.835938	10487.875000	20.862494
489.210175	1253.812012	43394.183594	10014.567383	20.789461
489.563416	1285.669312	40982.128906	9470.717773	20.619089
489.916565	1192.372925	38649.722656	8742.550781	20.156731
490.269653	1206.026001	36230.843750	8310.202148	20.283264
490.622772	1256.087524	34678.937500	7834.618164	19.682734
490.975769	1178.719727	34526.476563	7734.495117	19.658819
491.328735	1272.016113	36183.054688	8125.884766	19.632381
491.681732	1262.914063	38012.574219	8592.366211	19.944271
492.034607	1249.260864	40235.757813	8844.949219	19.482870
492.387482	1253.812012	40970.753906	9095.256836	19.743324
492.740326	1199.199463	40765.957031	8599.193359	18.702553
493.093079	1260.638550	38988.773438	8307.926758	18.679131
493.445862	1228.781250	35231.886719	7782.281250	19.273239
493.798523	1215.128052	32874.449219	7179.268066	18.838497
494.151215	1217.403687	30460.121094	6526.193848	18.154230
494.503815	1240.158813	27938.843750	6116.600098	18.264725
494.856384	1233.332275	26607.664063	5681.975586	17.532063
495.208923	1217.403687	25504.037109	5481.729492	17.558325
495.561432	1199.199463	24748.564453	5308.790039	17.450962
495.913879	1217.403687	24127.347656	5238.249023	17.550655
496.266296	1274.291626	24402.685547	5249.626465	17.188114
496.618683	1265.189575	24507.359375	5126.748535	16.614452
496.970978	1221.954712	25073.962891	5122.197266	16.351843
497.323273	1219.679199	25228.699219	5267.830566	16.860960
497.675507	1249.260864	25574.578125	5220.044922	16.323669
498.027710	1256.087524	25626.916016	5499.933594	17.413631
498.379852	1272.016113	25340.199219	5206.391602	16.346790
498.731995	1265.189575	24750.839844	5103.993164	16.345316
499.084076	1256.087524	24982.943359	5099.441895	16.198330
499.436096	1231.056763	23988.541016	4819.553223	15.768424
499.788086	1226.505737	23685.896484	4739.909668	15.643362
500.140106	1237.883301	23103.363281	4737.634277	16.005827
500.491943	1231.056763	22491.248047	4598.827637	15.840737
500.843842	1260.638550	22500.349609	4491.877930	15.213198
501.195679	1235.607788	21735.775391	4412.234863	15.495614
501.547455	1206.026001	21428.580078	4173.305176	14.673118
501.899231	1283.393677	21314.802734	4202.886719	14.574577
502.250885	1190.097412	21396.722656	4339.417969	15.585585
502.602600	1228.781250	21139.587891	4173.305176	14.788571
502.954193	1194.648438	20973.474609	4141.447754	14.898757
503.305786	1228.781250	21130.486328	3961.681641	13.731991
503.657379	1212.852539	21123.660156	4150.549805	14.754284
504.008820	1276.567139	21389.896484	4041.324951	13.745898
504.360291	1221.954712	21594.693359	4023.120850	13.749580
504.711700	1233.332275	21694.814453	4004.916504	13.545374
505.063080	1208.301514	21781.285156	4034.498291	13.737417
505.414368	1269.740601	21435.406250	3970.783691	13.394266
505.765656	1194.648438	21301.150391	3938.926514	13.648709
506.116943	1169.617676	21351.210938	3927.548828	13.665577
506.468109	1210.577026	21337.558594	3941.202148	13.566986
506.819305	1242.434326	21187.375000	3904.793701	13.348544
507.170410	1242.434326	21155.517578	3802.395264	12.855673
507.521484	1237.883301	21219.232422	3786.466553	12.754810
507.872559	1278.842651	21373.966797	3777.364502	12.433474
508.223480	1251.536499	21260.191406	3777.364502	12.623678
508.574493	1244.709839	21697.091797	3795.568604	12.472184
508.925385	1196.923950	22113.511719	3795.568604	12.423845
509.276245	1228.781250	22090.755859	3879.762939	12.707242
509.627045	1183.270874	22559.513672	3802.395264	12.252502
509.977814	1215.128052	22600.472656	3770.538086	11.949352
510.328613	1190.097412	22757.484375	3834.252441	12.259970
510.679260	1199.199463	23014.617188	3763.711426	11.755503
511.029999	1251.536499	23526.609375	3813.772949	11.502707
511.380585	1265.189575	23458.343750	3765.986816	11.268328
511.731140	1192.372925	23424.210938	3831.977051	11.873080
512.081726	1233.332275	23965.785156	3693.170166	10.820820
512.432129	1315.250977	24143.275391	3704.547852	10.466508
512.782654	1226.505737	24102.316406	3663.588379	10.653535
513.133057	1224.230225	24307.113281	3734.129639	10.873423
513.483398	1221.954712	23981.712891	3720.476563	10.977806
513.833801	1183.270874	24307.113281	3793.293213	11.287148
514.183960	1167.342163	23760.988281	3595.322754	10.746298
514.534302	1190.097412	23724.580078	3693.170166	11.107744
514.884460	1281.118164	23811.048828	3579.394287	10.200991
515.234619	1228.781250	23453.792969	3520.230713	10.310228
515.584717	1210.577026	23474.273438	3420.107666	9.924366
515.934753	1158.240112	23328.638672	3306.331787	9.689009
516.284851	1290.220337	23355.945313	3517.955078	10.095906
516.634766	1237.883301	23799.671875	3481.546875	9.944529
516.984741	1174.168701	24238.847656	3285.852051	9.155485
517.334595	1242.434326	24837.308594	3442.863037	9.325875
517.684448	1260.638550	25847.640625	3415.556641	8.764460
518.034363	1244.709839	26798.808594	3570.292236	9.100624
518.384094	1208.301514	28100.406250	3570.292236	8.783213
518.733826	1219.679199	28753.480469	3752.333740	9.198347
519.083496	1228.781250	29606.800781	3681.792725	8.644054
519.433167	1183.270874	29709.199219	3722.751953	8.902361
519.782776	1221.954712	29913.996094	3688.619141	8.597034
520.132324	1269.740601	29586.322266	3549.812500	8.052073
520.481873	1206.026001	28940.074219	3490.648926	8.237611
520.831299	1294.771362	27906.986328	3476.995850	8.200087
521.180786	1244.709839	27112.830078	3376.872803	8.242435
521.530151	1251.536499	26903.482422	3194.831299	7.575624
521.879517	1285.669312	26334.601563	3276.750000	7.948765
522.228882	1244.709839	26427.898438	3153.871826	7.581097
522.578064	1294.771362	26198.070313	3065.126465	7.108918
522.927307	1272.016113	25938.662109	3119.739014	7.490775
523.276489	1228.781250	26025.130859	3094.708252	7.525007
523.625610	1303.873413	26389.214844	3040.095703	6.921262
523.974792	1328.904175	26837.492188	3030.993652	6.672614
524.323792	1262.914063	27101.453125	2996.860840	6.710700
524.672852	1221.954712	27763.628906	3071.953125	6.970165
525.021790	1194.648438	28833.125000	3158.422852	7.105219
525.370728	1299.322388	29977.710938	3185.729004	6.577798
525.719604	1260.638550	31652.494141	3213.035400	6.424079
526.068420	1342.557251	33436.503906	3233.515137	5.891945
526.417297	1208.301514	35222.785156	3372.321777	6.362055
526.765991	1297.046875	35812.144531	3536.159424	6.487342
527.114746	1210.577026	36704.152344	3574.843262	6.661110
527.463379	1155.964600	37471.000000	3499.750977	6.454039
527.812012	1194.648438	39951.320313	3597.598389	6.200094
528.160706	1210.577026	43264.476563	3784.191162	6.119800
528.509155	1285.669312	48015.765625	3977.610352	5.760615
528.857727	1265.189575	52737.468750	4262.050293	5.822281
529.206177	1199.199463	55773.015625	4526.010742	6.095984
529.554565	1260.638550	56462.496094	4537.388672	5.935941
529.902893	1196.923950	55342.941406	4287.081055	5.707081
530.251221	1251.536499	53037.839844	4168.753906	5.633183
530.599548	1231.056763	49765.640625	3888.864990	5.476112
530.947876	1224.230225	45637.843750	3579.394287	5.302798
531.296021	1265.189575	41912.816406	3420.107666	5.301461
531.644165	1219.679199	39041.109375	3201.657715	5.240358
531.992249	1249.260864	37530.164063	3147.045166	5.230808
532.340454	1228.781250	36483.425781	3140.218750	5.421803
532.688354	1190.097412	36956.734375	3040.095703	5.172413
533.036438	1256.087524	37571.125000	3033.269287	4.893790
533.384338	1258.363037	39669.152344	3094.708252	4.780806
533.732239	1246.985352	41514.601563	3112.912354	4.633815
534.080139	1144.586914	42859.433594	3172.075928	4.860353
534.427917	1137.760376	41603.347656	3074.228516	4.785469
534.775757	1226.505737	40201.625000	3067.402100	4.723260
535.123474	1194.648438	38244.679688	2980.932129	4.821274
535.471191	1256.087524	36428.812500	2801.166016	4.392831
535.818848	1201.474976	34788.160156	2691.941162	4.437670
536.166382	1283.393677	33909.812500	2589.542725	4.003348
536.513977	1262.914063	33718.667969	2648.706299	4.269789
536.861511	1185.546387	34191.976563	2671.461426	4.501896
537.208984	1253.812012	34292.097656	2644.155273	4.208279
537.556396	1297.046875	33857.472656	2573.614014	3.920609
537.903809	1224.230225	33086.074219	2457.562500	3.870875
538.251160	1269.740601	32189.517578	2575.889648	4.224316
538.598389	1235.607788	31019.900391	2380.194824	3.842922
538.945740	1256.087524	30071.007813	2334.684326	3.743189
539.292969	1160.515625	29766.087891	2332.408936	4.096731
539.640137	1246.985352	29474.820313	2239.112549	3.514712
539.987244	1240.158813	29672.791016	2280.071777	3.657463
540.334351	1212.852539	30328.140625	2402.949951	4.087534
540.681458	1226.505737	31845.914063	2423.429688	3.909037
541.028442	1203.750488	34333.058594	2530.379150	4.004396
541.375366	1228.781250	37848.738281	2580.440674	3.691046
541.722290	1169.617676	41000.332031	2614.573486	3.627743
542.069153	1217.403687	43325.917969	2682.839111	3.480140
542.416016	1178.719727	43712.753906	2714.696289	3.611171
542.762756	1265.189575	42518.105469	2687.390137	3.447515
543.109558	1312.975464	40963.925781	2600.920166	3.248206
543.456299	1269.740601	39225.425781	2475.766602	3.177458
543.802917	1160.515625	37935.207031	2493.970703	3.626013
544.149536	1187.821899	36151.199219	2423.429688	3.534006
544.496094	1192.372925	33750.523438	2384.745850	3.662287
544.842651	1269.740601	32203.169922	2282.347412	3.273503
545.189148	1324.353149	30630.785156	2248.214600	3.152419
545.535583	1242.434326	29820.699219	2129.887451	3.105343
545.882019	1210.577026	28949.175781	2050.244141	3.027071
546.228333	1215.128052	28211.906250	2047.968750	3.084963
546.574707	1199.199463	27859.201172	2061.621826	3.234892
546.920898	1201.474976	28211.906250	2079.825928	3.251895
547.267212	1180.995239	28573.714844	2057.070801	3.198206
547.613342	1231.056763	27904.710938	2052.519775	3.079679
547.959473	1176.444214	27656.679688	1979.703125	3.033428
548.305664	1153.689087	27171.994141	1968.325439	3.131012
548.651611	1242.434326	25813.507813	1927.366089	2.787553
548.997742	1206.026001	25262.832031	1945.570313	3.074158
549.343689	1178.719727	23729.130859	1779.457275	2.663976
549.689575	1199.199463	23246.720703	1781.732788	2.642171
550.035522	1183.270874	22370.644531	1824.967651	3.028676
550.381287	1208.301514	21599.244141	1815.865601	2.979578
550.727173	1226.505737	21398.998047	1770.355225	2.695996
551.072876	1290.220337	20659.453125	1777.181763	2.514098
551.418640	1231.056763	20716.341797	1804.488037	2.942894
551.764282	1217.403687	20227.103516	1720.293701	2.645439
552.109863	1283.393677	20636.697266	1763.528564	2.480894
552.455505	1297.046875	20677.658203	1781.732788	2.500880
552.801025	1246.985352	21344.384766	1788.559326	2.694747
553.146545	1267.465088	21355.763672	1752.151001	2.412777
553.491943	1196.923950	21428.580078	1749.875488	2.733101
553.837341	1267.465088	21571.937500	1793.110352	2.588815
554.182800	1251.536499	21273.843750	1729.395752	2.386634
554.528015	1228.781250	20893.832031	1692.987427	2.360564
554.873352	1251.536499	20643.525391	1688.436401	2.252992
555.218628	1244.709839	20445.554688	1638.375000	2.050249
555.563721	1253.812012	20092.849609	1697.538574	2.355357
555.908875	1208.301514	19371.507813	1697.538574	2.693561
556.254028	1237.883301	19351.029297	1572.384888	1.846734
556.599121	1244.709839	19316.896484	1601.966675	1.976832
556.944031	1226.505737	18870.894531	1645.201538	2.372969
557.289063	1206.026001	18898.201172	1654.303589	2.533762
557.633972	1276.567139	18704.781250	1590.588989	1.801802
557.978882	1215.128052	18579.626953	1583.762451	2.122920
558.323792	1176.444214	18552.320313	1640.650513	2.671556
558.668518	1274.291626	18381.656250	1592.864502	1.862197
559.013306	1272.016113	18038.052734	1561.007324	1.723670
559.358032	1180.995239	18097.216797	1529.150024	2.058112
559.702637	1276.567139	18131.349609	1565.558350	1.714595
560.047363	1260.638550	18115.421875	1583.762451	1.917105
560.391846	1237.883301	18299.738281	1688.436401	2.640704
560.736450	1201.474976	18058.533203	1572.384888	2.200324
561.080933	1187.821899	18140.451172	1633.823975	2.630873
561.425354	1219.679199	18156.380859	1574.660400	2.095929
561.769775	1235.607788	18195.064453	1633.823975	2.348048
562.114136	1265.189575	18600.107422	1592.864502	1.890260
562.458496	1187.821899	18479.503906	1595.140137	2.355573
562.802673	1242.434326	18534.117188	1499.568237	1.487038
563.146912	1201.474976	18347.523438	1622.446289	2.455209
563.491150	1183.270874	17899.246094	1642.926025	2.749796
563.835266	1217.403687	17983.441406	1588.313477	2.212269
564.179443	1326.628662	18170.033203	1540.527588	1.269927
564.523438	1212.852539	18201.890625	1513.221313	1.768015
564.867493	1235.607788	18222.371094	1515.496826	1.647689
565.211426	1231.056763	18454.474609	1556.456177	1.889285
565.555359	1240.158813	18993.771484	1463.159912	1.256088
565.899231	1285.669312	19102.998047	1640.650513	1.992337
566.243042	1269.740601	19667.326172	1531.425537	1.422387
566.586914	1233.332275	20106.501953	1526.874512	1.555341
566.930603	1160.515625	20638.974609	1674.783325	2.640187
567.274292	1260.638550	20529.748047	1583.762451	1.676901
567.617981	1233.332275	20252.134766	1620.170776	2.033979
567.961609	1299.322388	20397.767578	1681.609863	2.001668
568.305237	1183.270874	19594.509766	1642.926025	2.496601
568.648682	1240.158813	19933.562500	1563.282837	1.728546
568.992188	1265.189575	19082.517578	1581.486938	1.775223
569.335632	1226.505737	19073.416016	1495.017212	1.504526
569.679016	1235.607788	18725.259766	1517.772339	1.613323
570.022461	1262.914063	19105.273438	1529.150024	1.492157
570.365662	1228.781250	19027.904297	1506.394775	1.559703
570.708984	1194.648438	19184.916016	1563.282837	2.049077
571.052185	1237.883301	19114.375000	1545.078613	1.718432
571.395386	1178.719727	19332.824219	1492.741699	1.729757
571.738525	1278.842651	19913.082031	1458.608887	0.964709
572.081604	1219.679199	20215.726563	1497.292725	1.461428
572.424683	1303.873413	20145.185547	1542.803101	1.268116
572.767578	1246.985352	20814.189453	1590.588989	1.756018
573.110596	1267.465088	20488.789063	1570.109375	1.574524
573.453552	1194.648438	20302.197266	1558.731689	1.905442
573.796387	1278.842651	20283.992188	1622.446289	1.807950
574.139282	1278.842651	20222.552734	1517.772339	1.261261
574.481995	1196.923950	19767.449219	1572.384888	2.021811
574.824768	1176.444214	19728.765625	1524.598877	1.876610
575.167480	1228.781250	19815.234375	1545.078613	1.701763
575.510132	1251.536499	19555.826172	1501.843750	1.367479
575.852722	1235.607788	19869.847656	1556.456177	1.721822
576.195251	1208.301514	19560.376953	1483.639526	1.500310
576.537842	1235.607788	19417.019531	1533.701050	1.639550
576.880188	1201.474976	19164.435547	1517.772339	1.760831
577.222717	1158.240112	18618.310547	1535.976563	2.163430
577.565063	1190.097412	18272.431641	1451.782227	1.531903
577.907410	1219.679199	17908.349609	1563.282837	2.058904
578.249756	1233.332275	17419.111328	1442.680176	1.293406
578.591919	1260.638550	17080.058594	1463.159912	1.280207
578.934204	1219.679199	16841.128906	1490.466064	1.733430
579.276306	1201.474976	16558.964844	1481.364014	1.822492
579.618469	1242.434326	16244.943359	1520.047852	1.850447
579.960571	1297.046875	15826.247070	1469.986450	1.190290
580.302551	1269.740601	15801.216797	1390.343262	0.829941
580.644531	1221.954712	15691.991211	1472.261963	1.729832
580.986511	1281.118164	15348.387695	1442.680176	1.148496
581.328369	1217.403687	15389.347656	1463.159912	1.734104
581.670227	1217.403687	15102.631836	1410.822876	1.392985
582.012024	1231.056763	15157.244141	1340.281738	0.784314
582.353821	1231.056763	15107.182617	1460.884399	1.656281
582.695496	1208.301514	14972.926758	1385.792114	1.289469
583.037231	1174.168701	14629.323242	1342.557251	1.251480
583.378845	1287.944824	14911.488281	1438.129150	1.102388
583.720398	1319.802124	14815.916016	1463.159912	1.062215
584.062012	1258.363037	14793.161133	1501.843750	1.798924
584.403442	1185.546387	14977.477539	1403.996338	1.583897
584.744934	1240.158813	14617.945313	1447.231201	1.547882
585.086365	1215.128052	14627.047852	1335.730713	0.899220
585.427734	1244.709839	14476.863281	1413.098389	1.272571
585.768982	1265.189575	14397.219727	1444.955688	1.368913
586.110291	1180.995239	14349.434570	1419.924927	1.814412
586.451599	1237.883301	14235.658203	1435.853638	1.523109
586.792725	1269.740601	14513.271484	1401.720825	0.996564
587.133850	1199.199463	14215.178711	1431.302612	1.783217
587.474915	1278.842651	14331.230469	1390.343262	0.854254
587.815979	1187.821899	14333.505859	1399.445313	1.609832
588.157043	1180.995239	14536.027344	1495.017212	2.351338
588.497925	1194.648438	14704.415039	1374.414551	1.330638
588.838867	1240.158813	14526.924805	1438.129150	1.489981
589.179749	1269.740601	14745.375000	1426.751587	1.165147
589.520569	1169.617676	14966.100586	1424.476074	1.847271
589.861450	1208.301514	15218.683594	1326.628662	0.844568
590.202087	1194.648438	15129.937500	1408.547363	1.534944
590.542847	1192.372925	15143.590820	1447.231201	1.826782
590.883484	1228.781250	15111.733398	1444.955688	1.557122
591.224121	1260.638550	15088.978516	1406.271851	1.053151
591.564636	1258.363037	14982.029297	1442.680176	1.343060
591.905151	1242.434326	14945.621094	1460.884399	1.594155
592.245667	1260.638550	14615.669922	1467.710938	1.550520
592.585999	1206.026001	14647.527344	1433.578125	1.692907
592.926453	1267.465088	14476.863281	1456.333252	1.429801
593.266724	1274.291626	14485.965820	1385.792114	0.843954
593.607056	1215.128052	14768.129883	1378.965576	1.208865
593.947388	1221.954712	14495.067383	1506.394775	2.142979
594.287476	1283.393677	14727.170898	1422.200562	1.032499
594.627686	1208.301514	14795.436523	1472.261963	1.942723
594.967773	1221.954712	15052.570313	1515.496826	2.122408
595.307861	1276.567139	15405.275391	1529.150024	1.787728
595.647888	1212.852539	15077.600586	1438.129150	1.624816
595.987854	1278.842651	15760.256836	1454.057739	1.209931
596.327820	1258.363037	15521.327148	1429.027100	1.196554
596.667725	1276.567139	16058.350586	1381.241089	0.708128
597.007568	1206.026001	16597.648438	1438.129150	1.507984
597.347351	1240.158813	17246.171875	1515.496826	1.720216
597.687073	1165.066650	17633.009766	1417.649414	1.533785
598.026794	1169.617676	17428.212891	1506.394775	2.071379
598.366455	1258.363037	17225.693359	1390.343262	0.826564
598.706116	1246.985352	16659.087891	1447.231201	1.299277
599.045654	1217.403687	16433.810547	1433.578125	1.420667
599.385193	1135.484863	15521.327148	1495.017212	2.499210
599.724731	1235.607788	15032.090820	1474.537476	1.731816
600.064087	1203.750488	14451.833008	1433.578125	1.734799
600.403564	1258.363037	14035.412109	1424.476074	1.300089
600.742920	1246.985352	14249.311523	1433.578125	1.435072
601.082153	1242.434326	14092.300781	1390.343262	1.151054
601.421387	1228.781250	13903.431641	1451.782227	1.759425
601.760620	1210.577026	14033.136719	1399.445313	1.472937
602.099854	1237.883301	14115.055664	1406.271851	1.307652
602.438843	1219.679199	14101.402344	1356.210449	1.059883
602.778015	1190.097412	14105.953125	1378.965576	1.462297
603.117065	1183.270874	14510.996094	1390.343262	1.553696
603.456055	1196.923950	15002.508789	1406.271851	1.516400
603.794983	1253.812012	15191.376953	1392.618774	0.995918
604.133850	1180.995239	16033.319336	1401.720825	1.486135
604.472778	1180.995239	16367.821289	1449.506714	1.768055
604.811584	1201.474976	16850.232422	1399.445313	1.265087
605.150330	1176.444214	17264.376953	1456.333252	1.739745
605.489075	1251.536499	17717.205078	1454.057739	1.229961
605.827698	1183.270874	17455.519531	1435.853638	1.552230
606.166382	1237.883301	17282.580078	1506.394775	1.673522
606.504883	1249.260864	16568.066406	1460.884399	1.381462
606.843445	1194.648438	16251.769531	1447.231201	1.677497
607.181946	1244.709839	15805.767578	1372.139038	0.875137
607.520386	1206.026001	15211.856445	1433.578125	1.624696
607.858826	1196.923950	14754.476563	1456.333252	1.913393
608.197083	1240.158813	14683.935547	1392.618774	1.134056
608.535461	1265.189575	14390.393555	1495.017212	1.751040
608.873718	1258.363037	14490.516602	1469.986450	1.599312
609.211914	1215.128052	14654.353516	1406.271851	1.422283
609.550171	1212.852539	14966.100586	1413.098389	1.455989
609.888245	1315.250977	15398.449219	1456.333252	1.001777
610.226318	1244.709839	15892.237305	1435.853638	1.304956
610.564392	1206.026001	15616.899414	1458.608887	1.752724
610.902344	1269.740601	15712.470703	1399.445313	0.898062
611.240295	1274.291626	15393.898438	1406.271851	0.934730
611.578247	1285.669312	15184.550781	1469.986450	1.326129
611.916138	1315.250977	14997.958008	1454.057739	1.014469
612.253845	1235.607788	14447.281250	1413.098389	1.343438
612.591675	1233.332275	14224.280273	1429.027100	1.506394
612.929382	1258.363037	13848.819336	1369.863525	0.885595
613.267090	1237.883301	13393.715820	1456.333252	1.797079
613.604736	1256.087524	13425.572266	1476.812988	1.813762
613.942261	1256.087524	12940.886719	1401.720825	1.246348
614.279785	1219.679199	12954.540039	1419.924927	1.706418
614.617310	1187.821899	12660.998047	1413.098389	1.963506
614.954712	1224.230225	12492.609375	1469.986450	2.180937
615.292175	1237.883301	12472.129883	1413.098389	1.559651
615.629517	1258.363037	12672.375000	1338.006226	0.697767
615.966797	1287.944824	12451.649414	1413.098389	1.121076
616.304138	1278.842651	12551.772461	1328.904175	0.444086
616.641296	1153.689087	12285.537109	1376.690063	2.003270
616.978516	1178.719727	12292.363281	1324.353149	1.310402
617.315552	1267.465088	12192.240234	1403.996338	1.249740
617.652771	1219.679199	12267.333008	1410.822876	1.730174
617.989685	1219.679199	12510.813477	1442.680176	1.975009
618.326721	1203.750488	12494.884766	1403.996338	1.773479
618.663696	1310.699951	12638.242188	1413.098389	0.903978
619.000549	1233.332275	12331.046875	1460.884399	2.050441
619.337463	1203.750488	12647.344727	1422.200562	1.908929
619.674194	1267.465088	12258.230469	1397.169800	1.180124
620.010986	1185.546387	12155.832031	1347.108276	1.472723
620.347778	1203.750488	12333.322266	1429.027100	2.024126
620.684387	1224.230225	12133.077148	1315.250977	0.834376
621.020996	1260.638550	11912.351563	1376.690063	1.089510
621.357605	1258.363037	12167.209961	1401.720825	1.314142
621.694214	1240.158813	11921.453125	1385.792114	1.363443
622.030579	1208.301514	11882.769531	1381.241089	1.620124
622.367065	1146.862427	11898.698242	1349.383789	1.883598
622.703430	1215.128052	11898.698242	1406.271851	1.789138
623.039795	1208.301514	11839.535156	1340.281738	1.241439
623.376160	1224.230225	11682.523438	1378.965576	1.479547
623.712402	1199.199463	11536.890625	1447.231201	2.399295
624.048645	1196.923950	11666.594727	1378.965576	1.738752
624.384766	1253.812012	11693.901367	1378.965576	1.198779
624.720886	1260.638550	11885.044922	1349.383789	0.835296
625.057007	1319.802124	11987.443359	1424.476074	0.981229
625.392944	1299.322388	11871.391602	1442.680176	1.356005
625.729004	1231.056763	11807.677734	1401.720825	1.613597
626.064941	1278.842651	12030.678711	1356.210449	0.719578
626.400818	1221.954712	12187.689453	1401.720825	1.639344
626.736633	1272.016113	12351.527344	1376.690063	0.944752
627.072449	1162.791138	12845.314453	1406.271851	2.084145
627.408264	1210.577026	12954.540039	1410.822876	1.705096
627.743896	1199.199463	12758.844727	1390.343262	1.653544
628.079590	1199.199463	12956.815430	1331.179688	1.122508
628.415161	1269.740601	13015.978516	1481.364014	1.801627
628.750793	1256.087524	12460.751953	1408.547363	1.360682
629.086365	1251.536499	12437.997070	1385.792114	1.200162
629.421753	1253.812012	12326.496094	1308.424438	0.493218
629.757263	1278.842651	12164.934570	1429.027100	1.379599
630.092651	1215.128052	11784.921875	1383.516602	1.593111
630.427917	1249.260864	11602.880859	1397.169800	1.428572
630.763184	1272.016113	11361.675781	1340.281738	0.676590
631.098511	1224.230225	11643.839844	1385.792114	1.550556
631.433716	1308.424438	11336.644531	1433.578125	1.248015
631.768799	1224.230225	11122.746094	1319.802124	0.965517
632.103943	1201.474976	11077.235352	1390.343262	1.912443
632.438965	1240.158813	11131.847656	1312.975464	0.736140
632.773987	1249.260864	10638.059570	1324.353149	0.799807
633.109070	1231.056763	10774.590820	1287.944824	0.596090
633.443848	1192.372925	10997.591797	1394.894287	2.065445
633.778870	1258.363037	10876.989258	1419.924927	1.679677
634.113708	1226.505737	10867.887695	1369.863525	1.486901
634.448425	1272.016113	10876.989258	1429.027100	1.634684
634.783264	1251.536499	10997.591797	1315.250977	0.653746
635.117859	1267.465088	10888.367188	1338.006226	0.733207
635.452576	1215.128052	10929.326172	1390.343262	1.803702
635.787170	1160.515625	10583.447266	1388.067749	2.414876
636.121704	1203.750488	10567.518555	1397.169800	2.065614
636.456177	1272.016113	10494.702148	1394.894287	1.332347
636.790588	1228.781250	10544.763672	1394.894287	1.783097
637.125122	1210.577026	10041.873047	1358.485962	1.674827
637.459412	1183.270874	9973.607422	1303.873413	1.371990
637.793762	1251.536499	10244.394531	1363.036987	1.239878
638.128052	1226.505737	9916.719727	1374.414551	1.702016
638.462280	1201.474976	9684.616211	1365.312500	1.931331
638.796509	1135.484863	9766.535156	1353.934937	2.530979
639.130615	1212.852539	9677.790039	1312.975464	1.182796
639.464722	1253.812012	9809.770508	1294.771362	0.478723
639.798767	1242.434326	9498.023438	1349.383789	1.295480
640.132751	1219.679199	9666.412109	1306.148926	1.023706
640.466736	1258.363037	9589.044922	1303.873413	0.546298
640.800598	1256.087524	9393.349609	1374.414551	1.454138
641.134521	1344.832764	9256.818359	1365.312500	0.258844
641.468262	1258.363037	9345.563477	1322.077637	0.787845
641.802063	1262.914063	9313.707031	1360.761475	1.215376
642.135803	1256.087524	9102.083008	1319.802124	0.812065
642.469421	1221.954712	8942.796875	1249.260864	0.353668
642.803101	1251.536499	9020.164063	1322.077637	0.908026
643.136658	1190.097412	9054.296875	1356.210449	2.112269
643.470215	1294.771362	9113.460938	1401.720825	1.367869
643.803711	1237.883301	8920.041992	1369.863525	1.718010
644.137085	1212.852539	8929.143555	1381.241089	2.182247
644.470581	1256.087524	8899.561523	1333.455200	1.012206
644.803833	1246.985352	9011.062500	1328.904175	1.055101
645.137207	1183.270874	8974.654297	1397.169800	2.745327
645.470459	1228.781250	8940.521484	1312.975464	1.091767
645.803589	1212.852539	8954.174805	1315.250977	1.322751
646.136780	1231.056763	8931.418945	1328.904175	1.270686
646.469849	1278.842651	8872.255859	1340.281738	0.809110
646.802979	1221.954712	8974.654297	1360.761475	1.790431
647.135986	1192.372925	9049.746094	1276.567139	1.071531
647.468994	1249.260864	9038.368164	1306.148926	0.730354
647.801941	1221.954712	8942.796875	1392.618774	2.210433
648.134766	1221.954712	9124.838867	1331.179688	1.382090
648.467651	1142.311401	9045.195313	1322.077637	2.274692
648.800354	1237.883301	8749.377930	1347.108276	1.454104
649.133179	1169.617676	8972.378906	1344.832764	2.245552
649.465881	1278.842651	8908.664063	1349.383789	0.924545
649.798462	1249.260864	8931.418945	1392.618774	1.866115
650.131104	1228.781250	8778.958984	1310.699951	1.084990
650.463623	1224.230225	8856.327148	1312.975464	1.162790
650.796143	1301.597900	8815.367188	1408.547363	1.423380
651.128662	1244.709839	8872.255859	1363.036987	1.551314
651.461060	1235.607788	8906.388672	1385.792114	1.957875
651.793396	1301.597900	9029.266602	1349.383789	0.618374
652.125732	1262.914063	8951.898438	1310.699951	0.621485
652.458008	1226.505737	8890.459961	1365.312500	1.811164
652.790222	1187.821899	8879.082031	1385.792114	2.573963
653.122437	1253.812012	9097.532227	1338.006226	1.073396
653.454529	1183.270874	8740.275391	1340.281738	2.077687
653.786621	1299.322388	8826.745117	1335.730713	0.483676
654.118713	1206.026001	8580.989258	1397.169800	2.591793
654.450623	1272.016113	8815.367188	1287.944824	0.211162
654.782654	1276.567139	8505.896484	1328.904175	0.723954
655.114502	1262.914063	8624.223633	1340.281738	1.051004
655.446350	1233.332275	8583.264648	1287.944824	0.743035
655.778198	1258.363037	8665.183594	1290.220337	0.430108
656.109863	1253.812012	8603.744141	1328.904175	1.021672
656.441650	1196.923950	8478.590820	1376.690063	2.468750
656.773254	1165.066650	8433.080078	1326.628662	2.222918
657.104919	1217.403687	8469.488281	1312.975464	1.317852
657.436462	1171.893188	8492.243164	1326.628662	2.113771
657.767944	1244.709839	8437.630859	1360.761475	1.613415
658.099548	1249.260864	8571.886719	1360.761475	1.522686
658.430908	1278.842651	8669.734375	1315.250977	0.492611
658.762268	1237.883301	8933.694336	1267.465088	0.384388
659.093628	1231.056763	9147.593750	1399.445313	2.127048
659.424927	1221.954712	9300.053711	1410.822876	2.338027
659.756226	1203.750488	9875.760742	1383.516602	2.072946
660.087341	1224.230225	9807.495117	1353.934937	1.511135
660.418518	1272.016113	9953.127930	1426.751587	1.782439
660.749573	1267.465088	9932.648438	1392.618774	1.444328
661.080627	1178.719727	9702.820313	1365.312500	2.189003
661.411621	1187.821899	9791.566406	1372.139038	2.142290
661.742554	1240.158813	9529.880859	1367.588013	1.537195
662.073547	1287.944824	9108.910156	1399.445313	1.425661
662.404297	1260.638550	9013.337891	1376.690063	1.496917
662.735229	1287.944824	8967.827148	1342.557251	0.711110
663.065979	1237.883301	8692.489258	1267.465088	0.396826
663.396667	1128.658325	8530.927734	1367.588013	3.227790
663.727417	1231.056763	8410.325195	1322.077637	1.267829
664.057922	1253.812012	8239.661133	1401.720825	2.117263
664.388611	1224.230225	7982.526855	1290.220337	0.976431
664.719116	1258.363037	7966.598145	1294.771362	0.542741
665.049622	1192.372925	8260.140625	1278.842651	1.223438
665.380005	1228.781250	7889.230469	1312.975464	1.264092
665.710388	1199.199463	7732.219727	1303.873413	1.602229
666.040771	1199.199463	7766.352539	1367.588013	2.564103
666.371033	1208.301514	7748.148438	1335.730713	1.948504
666.701294	1126.382813	7773.179199	1317.526489	2.875726
667.031555	1242.434326	7841.444824	1290.220337	0.724139
667.361633	1258.363037	7673.056152	1274.291626	0.248314
667.691772	1219.679199	7836.893555	1274.291626	0.825308
668.021790	1192.372925	7909.710449	1328.904175	2.032520
668.351807	1212.852539	7848.271484	1312.975464	1.508916
668.681763	1242.434326	7677.607422	1262.914063	0.318247
669.011719	1269.740601	7818.689453	1276.567139	0.104239
669.341614	1278.842651	8062.170410	1351.659302	1.073465
669.671387	1281.118164	7789.107910	1310.699951	0.454546
670.001221	1231.056763	7900.608398	1385.792114	2.320026
670.330933	1246.985352	7830.066895	1356.210449	1.659179
670.660583	1292.495850	7866.475586	1340.281738	0.726894
670.990173	1242.434326	7698.086914	1335.730713	1.445189
671.319763	1262.914063	7711.740234	1299.322388	0.564573
671.649292	1342.557251	7399.993652	1326.628662	-0.262959
671.978821	1194.648438	7629.821289	1399.445313	3.182461
672.308289	1206.026001	7522.871582	1258.363037	0.828531
672.637695	1208.301514	7561.555664	1340.281738	2.077364
672.966980	1171.893188	7418.197754	1358.485962	2.987251
673.296326	1185.546387	7434.126465	1324.353149	2.221413
673.625610	1231.056763	7374.962891	1417.649414	3.037036
673.954773	1221.954712	7345.381348	1297.046875	1.226310
674.283936	1233.332275	7252.084961	1249.260864	0.264649
674.613037	1206.026001	7258.911133	1242.434326	0.601504
674.942078	1226.505737	7356.758789	1347.108276	1.967334
675.271118	1290.220337	7327.176758	1249.260864	-0.678479
675.600098	1194.648438	7199.748047	1283.393677	1.477831
675.928955	1160.515625	7181.543457	1324.353149	2.721089
676.257813	1322.077637	6967.644531	1299.322388	-0.403064
676.586670	1294.771362	7140.584473	1269.740601	-0.428183
676.915466	1278.842651	7181.543457	1344.832764	1.117965
677.244141	1212.852539	7108.727051	1326.628662	1.929758
677.572876	1231.056763	7161.063965	1358.485962	2.148888
677.901489	1260.638550	7186.094727	1306.148926	0.768048
678.230042	1155.964600	7172.441406	1269.740601	1.891074
678.558594	1219.679199	7165.615234	1378.965576	2.678912
678.887085	1187.821899	7174.717285	1265.189575	1.292284
679.215515	1185.546387	7372.687500	1344.832764	2.574475
679.543945	1203.750488	7374.962891	1417.649414	3.466076
679.872253	1276.567139	7283.941895	1319.802124	0.719698
680.200562	1272.016113	7545.626953	1310.699951	0.616612
680.528809	1203.750488	7714.015625	1281.118164	1.188395
680.856995	1183.270874	7793.658691	1283.393677	1.514628
681.185120	1265.189575	7766.352539	1297.046875	0.490025
681.513306	1192.372925	7836.893555	1283.393677	1.369862
681.841309	1231.056763	7845.995605	1292.495850	0.928793
682.169373	1221.954712	7843.720215	1356.210449	2.027492
682.497314	1219.679199	7716.291016	1276.567139	0.875656
682.825134	1237.883301	7711.740234	1358.485962	1.862918
683.153076	1151.413574	7586.586426	1272.016113	1.874115
683.480896	1235.607788	7481.912598	1358.485962	1.967214
683.808655	1210.577026	7511.494141	1285.669312	1.191768
684.136414	1196.923950	7331.728027	1349.383789	2.485162
684.464050	1297.046875	7256.635742	1338.006226	0.687285
684.791626	1308.424438	7217.952148	1306.148926	-0.038506
685.119263	1285.669312	7106.451660	1299.322388	0.234557
685.446838	1260.638550	6976.746582	1312.975464	0.915604
685.774292	1287.944824	6851.593262	1244.709839	-0.777098
686.101685	1251.536499	6781.051758	1356.210449	1.893004
686.429077	1212.852539	6703.684082	1246.985352	0.621633
686.756348	1242.434326	6655.898438	1353.934937	2.059691
687.083679	1201.474976	6703.684082	1267.465088	1.199339
687.410950	1217.403687	6692.306641	1319.802124	1.870324
687.738159	1253.812012	6888.001465	1290.220337	0.646203
688.065308	1244.709839	6867.521973	1340.281738	1.699717
688.392395	1233.332275	6931.236328	1369.863525	2.396166
688.719421	1212.852539	6728.714844	1340.281738	2.310232
689.046448	1242.434326	6710.510742	1317.526489	1.373283
689.373413	1246.985352	6847.041992	1319.802124	1.300286
689.700317	1237.883301	6749.194824	1342.557251	1.899257
690.027100	1180.995239	6737.816895	1372.139038	3.439804
690.353943	1224.230225	6742.368164	1315.250977	1.649483
690.680725	1297.046875	6512.540527	1260.638550	-0.698080
691.007446	1299.322388	6248.580078	1299.322388	0.000000
691.334106	1174.168701	6316.845703	1265.189575	1.769912
691.660645	1251.536499	6382.835938	1249.260864	-0.044348
691.987244	1187.821899	6121.150879	1224.230225	0.738007
692.313721	1190.097412	6187.141113	1244.709839	1.092895
692.640259	1251.536499	6153.008301	1262.914063	0.232125
692.966675	1162.791138	6171.212402	1228.781250	1.317583
693.293030	1153.689087	6087.018066	1301.597900	2.998154
693.619324	1210.577026	5907.251953	1253.812012	0.920545
693.945618	1169.617676	6123.426270	1306.148926	2.756087
694.271851	1242.434326	5886.772461	1356.210449	2.449781
694.598083	1272.016113	5911.803223	1292.495850	0.441394
694.924194	1240.158813	5838.986328	1228.781250	-0.247401
695.250244	1228.781250	5955.038086	1272.016113	0.914780
695.576294	1192.372925	5829.884277	1351.659302	3.434738
695.902283	1160.515625	5955.038086	1367.588013	4.318937
696.228210	1235.607788	5829.884277	1344.832764	2.377414
696.554138	1258.363037	5916.354004	1342.557251	1.807522
696.879944	1233.332275	6027.854492	1285.669312	1.091601
697.205750	1228.781250	6057.436523	1287.944824	1.225260
697.531433	1208.301514	6264.508789	1267.465088	1.170118
697.857178	1190.097412	6218.998535	1322.077637	2.624434
698.182739	1294.771362	6444.274902	1331.179688	0.707026
698.508423	1212.852539	6603.561523	1367.588013	2.870410
698.833984	1269.740601	6831.113281	1394.894287	2.250410
699.159485	1187.821899	7024.532715	1256.087524	1.169591
699.484924	1326.628662	7459.157227	1260.638550	-1.076067
699.810303	1212.852539	7404.544922	1312.975464	1.617053
700.135681	1262.914063	7365.860840	1319.802124	0.932141
700.460999	1251.536499	7634.372070	1308.424438	0.891264
700.786255	1269.740601	7352.207520	1312.975464	0.710811
701.111450	1180.995239	7161.063965	1312.975464	2.207002
701.436646	1244.709839	6837.939941	1297.046875	0.935721
701.761719	1251.536499	6592.183594	1303.873413	0.979973
702.086792	1262.914063	6457.928223	1317.526489	1.051247
702.411865	1244.709839	6282.712891	1358.485962	2.258358
702.736816	1221.954712	6059.711914	1244.709839	0.470365
703.061646	1224.230225	5882.221191	1231.056763	0.146555
703.386536	1281.118164	5779.822754	1201.474976	-1.770358
703.711365	1194.648438	5618.260742	1262.914063	1.543210
704.036194	1194.648438	5761.618652	1294.771362	2.192327
704.360901	1251.536499	5445.321289	1283.393677	0.759628
704.685547	1190.097412	5411.188477	1281.118164	2.156332
705.010132	1217.403687	5256.453125	1242.434326	0.619716
705.334717	1235.607788	5377.055664	1274.291626	0.934066
705.659302	1237.883301	5290.585938	1224.230225	-0.336888
705.983765	1201.474976	5240.524414	1249.260864	1.183097
706.308228	1251.536499	5167.707520	1269.740601	0.464844
706.632568	1283.393677	5308.790039	1206.026001	-1.921989
706.956909	1249.260864	5092.615723	1310.699951	1.598580
707.281189	1174.168701	5206.391602	1201.474976	0.677202
707.605408	1203.750488	5049.380859	1212.852539	0.236686
707.929626	1246.985352	5283.759277	1301.597900	1.352876
708.253784	1199.199463	5165.432129	1301.597900	2.581756
708.577820	1183.270874	5224.595703	1253.812012	1.745495
708.901855	1276.567139	5154.054688	1251.536499	-0.645538
709.225830	1201.474976	5131.299316	1246.985352	1.158077
709.549805	1203.750488	5415.739746	1278.842651	1.782819
709.873718	1317.526489	5172.258789	1269.740601	-1.239668
710.197510	1249.260864	5276.932617	1237.883301	-0.282485
710.521362	1219.679199	5331.545410	1303.873413	2.047591
710.845093	1192.372925	5235.973145	1258.363037	1.631964
711.168701	1167.342163	5288.310547	1340.281738	4.196576
711.492432	1217.403687	5515.862305	1240.158813	0.529379
711.816040	1212.852539	5595.505859	1292.495850	1.817240
712.139587	1228.781250	5615.985352	1290.220337	1.400416
712.463074	1219.679199	5631.914063	1269.740601	1.134604
712.786499	1267.465088	5636.464844	1249.260864	-0.416668
713.109924	1274.291626	5484.005371	1360.761475	2.054055
713.433350	1219.679199	5499.933594	1322.077637	2.392345
713.756592	1219.679199	5481.729492	1319.802124	2.349173
714.079834	1253.812012	5429.392578	1283.393677	0.708444
714.403015	1237.883301	5222.320313	1258.363037	0.513993
714.726196	1253.812012	5315.616699	1301.597900	1.176469
715.049255	1278.842651	5390.708984	1306.148926	0.664085
715.372375	1176.444214	5220.044922	1192.372925	0.393924
715.695435	1308.424438	5092.615723	1283.393677	-0.661456
716.018311	1269.740601	5169.983398	1283.393677	0.350057
716.341248	1196.923950	5208.666992	1303.873413	2.665910
716.664063	1269.740601	5235.973145	1287.944824	0.458980
716.987000	1237.883301	5436.219238	1212.852539	-0.596207
717.309692	1237.883301	5117.646484	1267.465088	0.762464
717.632385	1251.536499	5245.075684	1349.383789	2.450140
717.955078	1269.740601	4903.747559	1276.567139	0.187852
718.277649	1285.669312	4928.777832	1319.802124	0.936915
718.600220	1240.158813	5047.104980	1310.699951	1.852959
718.922791	1224.230225	4953.808594	1299.322388	2.013422
719.245300	1201.474976	4858.236816	1322.077637	3.298073
719.567688	1203.750488	4769.491699	1235.607788	0.893427
719.890015	1235.607788	4774.042480	1322.077637	2.443732
720.212341	1167.342163	4544.214844	1324.353149	4.649598
720.534607	1206.026001	4582.898926	1303.873413	2.897574
720.856873	1251.536499	4553.316895	1294.771362	1.309441
721.179016	1187.821899	4482.775879	1260.638550	2.209944
721.501160	1262.914063	4462.296387	1328.904175	2.062589
721.823242	1242.434326	4441.816406	1303.873413	1.920342
722.145264	1199.199463	4403.132813	1233.332275	1.065341
722.467224	1253.812012	4394.030762	1290.220337	1.159420
722.789185	1228.781250	4337.142578	1299.322388	2.269400
723.111023	1249.260864	4389.479492	1265.189575	0.507248
723.432861	1253.812012	4405.408203	1342.557251	2.815882
723.754578	1192.372925	4318.938477	1333.455200	4.512372
724.076294	1226.505737	4166.478516	1315.250977	3.018574
724.397949	1210.577026	4227.917480	1315.250977	3.469080
724.719666	1215.128052	4264.326172	1269.740601	1.791046
725.041260	1253.812012	4223.366699	1335.730713	2.758619
725.362732	1208.301514	4284.805664	1215.128052	0.221893
725.684265	1283.393677	4437.265625	1258.363037	-0.793648
726.005676	1301.597900	4250.672852	1333.455200	1.080247
726.327087	1281.118164	4248.397461	1281.118164	0.000000
726.648438	1215.128052	4298.458984	1274.291626	1.918820
726.969666	1260.638550	4296.183105	1235.607788	-0.824589
727.290894	1208.301514	4248.397461	1285.669312	2.544913
727.612061	1351.659302	4300.734375	1258.363037	-3.163577
727.933228	1249.260864	4416.785645	1285.669312	1.149429
728.254395	1151.413574	4400.857422	1303.873413	4.691875
728.575378	1235.607788	4430.438965	1301.597900	2.065527
728.896301	1253.812012	4425.888184	1226.505737	-0.860833
729.217285	1221.954712	4475.949219	1331.179688	3.356643
729.538147	1183.270874	4507.806641	1274.291626	2.737849
729.858948	1219.679199	4485.051270	1253.812012	1.045296
730.179810	1146.862427	4637.511230	1308.424438	4.628423
730.500549	1196.923950	4391.755371	1338.006226	4.415954
730.821228	1217.403687	4434.990234	1338.006226	3.748230
731.141846	1256.087524	4548.766113	1335.730713	2.418796
731.462402	1246.985352	4521.459961	1256.087524	0.277974
731.782898	1219.679199	4630.685059	1287.944824	2.001334
732.103455	1231.056763	4698.950684	1342.557251	3.215222
732.423889	1167.342163	4462.296387	1269.740601	3.107735
732.744263	1203.750488	4510.082031	1262.914063	1.789402
733.064636	1242.434326	4580.623535	1292.495850	1.499661
733.384888	1251.536499	4596.552246	1326.628662	2.244897
733.705200	1180.995239	4578.347656	1287.944824	3.148027
734.025330	1242.434326	4637.511230	1360.761475	3.485257
734.345520	1187.821899	4496.429199	1347.108276	4.814303
734.665527	1269.740601	4587.449707	1235.607788	-1.028807
734.985596	1287.944824	4482.775879	1344.832764	1.780624
735.305542	1251.536499	4507.806641	1297.046875	1.397623
735.625549	1265.189575	4432.714355	1194.648438	-2.227011
735.945435	1155.964600	4348.520020	1317.526489	5.060582
736.265259	1240.158813	4259.774902	1267.465088	0.904296
736.585083	1194.648438	4177.855957	1326.628662	4.424105
736.904785	1235.607788	4298.458984	1312.975464	2.526002
737.224426	1274.291626	4189.233887	1367.588013	3.200625
737.544128	1233.332275	4036.773926	1294.771362	2.191559
737.863708	1217.403687	4107.314941	1335.730713	4.094487
738.183289	1267.465088	4239.295410	1297.046875	0.995406
738.502808	1228.781250	4273.428223	1276.567139	1.569505
738.822205	1226.505737	4221.091309	1388.067749	5.395138
739.141541	1149.138062	4216.540039	1401.720825	8.234421
739.460938	1231.056763	4184.682617	1306.148926	2.542372
739.780212	1297.046875	4230.193359	1344.832764	1.629168
740.099426	1251.536499	4248.397461	1369.863525	3.948366
740.418640	1162.791138	4307.561035	1322.077637	5.065124
740.737793	1178.719727	4173.305176	1301.597900	4.103345
741.056885	1212.852539	4255.224121	1265.189575	1.720271
741.375977	1258.363037	4207.437988	1367.588013	3.703703
741.694946	1244.709839	4114.141602	1322.077637	2.696276
742.013855	1183.270874	4059.529053	1356.210449	6.012658
742.332703	1242.434326	4002.641113	1319.802124	2.802971
742.651550	1208.301514	3952.579590	1363.036987	5.638476
742.970398	1269.740601	4016.294189	1344.832764	2.734051
743.289124	1185.546387	4041.324951	1351.659302	5.816730
743.607788	1219.679199	3886.589600	1315.250977	3.583614
743.926453	1233.332275	3925.273438	1340.281738	3.972950
744.245056	1199.199463	3982.161377	1319.802124	4.333608
744.563599	1258.363037	3954.855225	1372.139038	4.219408
744.882141	1244.709839	3911.620361	1351.659302	4.010238
745.200500	1246.985352	3829.701416	1372.139038	4.845817
745.518860	1310.699951	3765.986816	1319.802124	0.370717
745.837219	1253.812012	3674.966064	1388.067749	5.545114
746.155518	1237.883301	3791.017578	1319.802124	3.208559
746.473755	1226.505737	3775.089111	1308.424438	3.214284
746.791992	1283.393677	3622.629150	1340.281738	2.431908
747.110107	1233.332275	3718.200928	1322.077637	3.571431
747.428162	1306.148926	3788.742188	1272.016113	-1.374885
747.746216	1180.995239	3768.262451	1276.567139	3.693933
748.064148	1274.291626	3665.864014	1388.067749	4.757378
748.382080	1212.852539	3686.343750	1356.210449	5.795772
748.700073	1206.026001	3754.609375	1349.383789	5.624999
749.017822	1215.128052	3809.221924	1413.098389	7.631580
749.335632	1196.923950	3713.649902	1347.108276	5.967448
749.653320	1242.434326	3791.017578	1383.516602	5.535714
749.971008	1137.760376	3841.079102	1322.077637	6.818184
750.288696	1208.301514	3800.119629	1353.934937	5.618968
750.606262	1274.291626	3756.884766	1381.241089	4.307974
750.923828	1206.026001	3779.640137	1401.720825	7.603891
751.241272	1185.546387	3738.680664	1447.231201	10.249552
751.558716	1137.760376	3608.976074	1406.271851	10.865561
751.876038	1272.016113	3654.486328	1363.036987	3.820441
752.193481	1258.363037	3672.690674	1397.169800	5.749293
752.510681	1265.189575	3668.139648	1488.190552	9.280299
752.827942	1174.168701	3677.241699	1399.445313	9.000002
753.145081	1233.332275	3690.894775	1426.751587	7.870372
753.462219	1269.740601	3636.282227	1454.057739	7.788460
753.779297	1267.465088	3593.047363	1367.588013	4.305284
754.096375	1258.363037	3697.721191	1524.598877	10.914176
754.413330	1235.607788	3563.465576	1413.098389	7.624632
754.730286	1226.505737	3581.669678	1381.241089	6.570045
755.047119	1219.679199	3636.282227	1506.394775	11.864406
755.363892	1237.883301	3490.648926	1469.986450	10.303031
755.680725	1244.709839	3563.465576	1488.190552	10.500489
755.997498	1251.536499	3565.741211	1454.057739	8.751225
756.314148	1192.372925	3502.026611	1460.884399	11.625616
756.630737	1265.189575	3643.108887	1463.159912	8.325359
756.947327	1260.638550	3486.097900	1483.639526	10.020447
757.263855	1237.883301	3513.404053	1465.435425	10.000002
757.580261	1226.505737	3529.332764	1469.986450	10.573121
757.896729	1190.097412	3513.404053	1526.874512	14.495594
758.213074	1221.954712	3520.230713	1488.190552	11.584155
758.529419	1206.026001	3545.261475	1488.190552	12.062256
758.845642	1281.118164	3631.731201	1545.078613	11.229430
759.161865	1242.434326	3595.322754	1549.629639	13.056093
759.478149	1251.536499	3634.006836	1570.109375	13.371536
759.794189	1292.495850	3647.659912	1595.140137	12.850243
760.110229	1246.985352	3624.904541	1556.456177	13.014354
760.426270	1226.505737	3845.630127	1604.242188	14.422241
760.742249	1219.679199	3704.547852	1624.721802	16.300364
761.058105	1256.087524	3665.864014	1638.375000	15.864023
761.374023	1212.852539	3593.047363	1570.109375	15.009562
761.689819	1276.567139	3763.711426	1667.956787	15.736507
762.005554	1278.842651	3768.262451	1590.588989	12.522851
762.321289	1246.985352	3647.659912	1615.619751	15.355451
762.636902	1233.332275	3754.609375	1622.446289	15.433211
762.952515	1228.781250	3791.017578	1624.721802	15.452929
763.268127	1303.873413	3704.547852	1654.303589	14.597156
763.583618	1267.465088	4016.294189	1699.814087	15.728478
763.899048	1274.291626	4223.366699	1768.079712	16.743828
764.214478	1253.812012	4721.705566	1834.069824	16.732285
764.529785	1242.434326	4969.737305	1929.641602	18.437119
764.845093	1292.495850	5210.942871	1991.080688	17.828104
765.160400	1244.709839	5158.605469	2013.835938	19.651165
765.475586	1269.740601	4944.706543	1959.223389	18.761610
765.790771	1160.515625	4967.461914	1954.672363	20.860729
766.105835	1224.230225	4664.817871	1934.192627	20.634916
766.420837	1240.158813	4446.367676	1931.917114	21.575584
766.735840	1256.087524	4403.132813	1897.784302	20.390451
767.050842	1203.750488	4300.734375	1900.059814	22.483467
767.365662	1171.893188	4020.845215	1884.131226	25.000000
767.680542	1221.954712	3950.304199	1802.212524	21.267721
767.995300	1240.158813	3884.313965	1859.100464	23.407917
768.309998	1180.995239	3818.323975	1881.855713	26.574636
768.624817	1199.199463	3788.742188	1813.590088	23.725834
768.939392	1237.883301	3718.200928	1793.110352	22.385321
769.254028	1256.087524	3709.098877	1824.967651	23.191093
769.568481	1240.158813	3574.843262	1770.355225	22.709553
769.882935	1219.679199	3661.312988	1813.590088	24.324324
770.197388	1203.750488	3502.026611	1797.661377	25.841581
770.511841	1242.434326	3490.648926	1804.488037	25.000002
770.826172	1199.199463	3449.689453	1790.834839	26.289181
771.140442	1228.781250	3422.383301	1779.457275	25.103735
771.454651	1249.260864	3356.393066	1779.457275	25.161989
771.768860	1158.240112	3422.383301	1809.039063	28.743721
772.082886	1235.607788	3376.872803	1770.355225	24.973434
772.397034	1221.954712	3360.944336	1788.559326	26.489357
772.711060	1219.679199	3345.015625	1822.692139	28.372587
773.025024	1272.016113	3222.137451	1774.906250	25.787634
773.338928	1201.474976	3256.270264	1727.120239	25.581392
773.652771	1194.648438	3285.852051	1768.079712	27.421112
773.966614	1251.536499	3269.923340	1781.732788	26.268318
774.280457	1233.332275	3222.137451	1797.661377	28.375282
774.594116	1231.056763	3185.729004	1754.426514	26.775320
774.907776	1231.056763	3213.035400	1758.977539	26.636047
775.221375	1267.465088	3149.320801	1758.977539	26.118498
775.534912	1208.301514	3117.463379	1768.079712	29.320625
775.848450	1215.128052	3190.280273	1861.375977	32.718891
776.161926	1174.168701	3122.014648	1784.008301	31.308411
776.475342	1251.536499	3026.442627	1758.977539	28.589739
776.788696	1258.363037	3167.524902	1724.844727	24.433847
777.101990	1240.158813	3085.606201	1772.630737	28.853270
777.415283	1178.719727	3081.055176	1752.151001	30.143541
777.728516	1237.883301	3076.504150	1745.324463	27.599010
778.041626	1201.474976	2978.656738	1740.773438	30.345713
778.354736	1174.168701	3151.596191	1758.977539	29.574224
778.667725	1262.914063	3046.922363	1836.345337	32.142860
778.980774	1212.852539	3081.055176	1743.048950	28.380028
779.293640	1176.444214	3053.749023	1820.416626	34.303028
779.606567	1206.026001	2965.003662	1774.906250	32.341526
779.919434	1231.056763	3012.789551	1761.253052	29.757339
780.232239	1242.434326	3060.575439	1804.488037	30.913647
780.544983	1221.954712	2903.564453	1809.039063	34.912045
780.857666	1267.465088	2980.932129	1786.283813	30.278885
781.170227	1285.669312	3090.157227	1718.018188	23.959644
781.482849	1258.363037	2876.258301	1799.937012	33.473984
781.795410	1299.322388	3019.616211	1772.630737	27.513227
782.107910	1265.189575	2976.381104	1740.773438	27.792557
782.420288	1278.842651	2901.289063	1768.079712	30.154282
782.732666	1210.577026	2937.697266	1795.385864	33.860344
783.044983	1262.914063	2949.074951	1747.599976	28.744938
783.357300	1249.260864	2889.911377	1786.283813	32.732319
783.669495	1278.842651	2821.645752	1665.681274	25.073751
783.981689	1249.260864	2792.063965	1724.844727	30.825960
784.293762	1265.189575	2910.391113	1811.314575	33.195023
784.605835	1249.260864	2858.054199	1756.702026	31.541725
784.917908	1242.434326	2864.880615	1836.345337	36.605896
785.229858	1174.168701	2899.013428	1718.018188	31.530344
785.541748	1253.812012	2785.237549	1758.977539	32.986622
785.853577	1242.434326	2807.992676	1768.079712	33.575584
786.165405	1256.087524	2785.237549	1681.609863	27.827377
786.477173	1267.465088	2755.655762	1690.711914	28.440363
786.788879	1246.985352	2703.318604	1745.324463	34.218754
787.100525	1217.403687	2764.757813	1624.721802	26.323523
787.412109	1162.791138	2710.145264	1740.773438	37.352943
787.723694	1176.444214	2705.594238	1692.987427	33.779758
788.035156	1256.087524	2757.931152	1740.773438	32.272728
788.346558	1237.883301	2621.399902	1774.906250	38.815792
788.658081	1244.709839	2848.952148	1747.599976	31.347517
788.969360	1217.403687	2958.177002	1822.692139	34.771240
789.280640	1206.026001	2955.901611	1813.590088	34.720417
789.591919	1278.842651	2967.279053	1797.661377	30.727762
789.903076	1219.679199	2939.972900	1875.029175	38.095238
790.214172	1240.158813	3081.055176	1838.620850	32.509274
790.525269	1221.954712	2996.860840	1818.141113	33.589745
790.836365	1215.128052	2780.686523	1777.181763	35.901165
791.147339	1249.260864	2901.289063	1772.630737	31.680445
791.458191	1217.403687	2730.625000	1836.345337	40.902256
791.769104	1153.689087	2682.839111	1806.763550	42.708332
792.079895	1185.546387	2723.798340	1736.222412	35.798817
792.390686	1185.546387	2705.594238	1772.630737	38.622753
792.701416	1244.709839	2625.950928	1738.497925	35.749596
793.012085	1274.291626	2648.706299	1699.814087	30.960268
793.322693	1217.403687	2751.104736	1658.854614	28.783375
793.633240	1287.944824	2678.288086	1777.181763	35.188213
793.943787	1203.750488	2578.165039	1702.089600	36.258282
794.254272	1265.189575	2662.359375	1736.222412	33.713356
794.564636	1276.567139	2637.328613	1777.181763	36.789299
794.875000	1267.465088	2662.359375	1665.681274	28.548126
795.185303	1308.424438	2623.675537	1736.222412	32.525955
795.495544	1240.158813	2644.155273	1574.660400	23.824959
795.805786	1176.444214	2607.746826	1729.395752	38.632748
796.115906	1251.536499	2587.267090	1695.262939	33.219757
796.426025	1285.669312	2575.889648	1665.681274	29.453260
796.736023	1249.260864	2730.625000	1736.222412	32.872509
797.045959	1285.669312	2689.665527	1715.742676	30.632088
797.355896	1224.230225	2873.982666	1763.528564	32.689651
797.665833	1167.342163	2701.043213	1747.599976	37.833828
797.975708	1208.301514	2730.625000	1790.834839	38.266068
798.285461	1231.056763	2757.931152	1727.120239	32.488819
798.595154	1176.444214	2628.226563	1774.906250	41.222572
798.904846	1235.607788	2650.981689	1699.814087	32.797432
799.214478	1269.740601	2635.052979	1688.436401	30.666668
799.524109	1276.567139	2644.155273	1663.405762	28.286194
799.833557	1215.128052	2635.052979	1631.548462	29.326931
800.143005	1242.434326	2623.675537	1663.405762	30.477764
800.452393	1185.546387	2598.644775	1690.711914	35.748787
800.761780	1276.567139	2534.930176	1706.640625	34.177219
801.071106	1274.291626	2534.930176	1679.334351	32.129967
801.380371	1187.821899	2498.521729	1729.395752	41.319443
801.689575	1224.230225	2480.317627	1667.956787	35.326088
801.998718	1192.372925	2466.664551	1633.823975	34.642860
802.307800	1242.434326	2423.429688	1727.120239	41.040459
802.616882	1190.097412	2475.766602	1715.742676	40.884956
802.925903	1269.740601	2437.082764	1733.946899	39.766087
803.234863	1206.026001	2382.470215	1633.823975	36.363644
803.543701	1253.812012	2371.092773	1642.926025	34.826878
803.852539	1174.168701	2507.624023	1740.773438	42.491467
804.161316	1226.505737	2437.082764	1647.477051	34.774433
804.470032	1199.199463	2416.603027	1631.548462	35.514023
804.778809	1262.914063	2505.348389	1686.160889	34.065933
805.087341	1231.056763	2389.296875	1540.527588	26.719055
805.395935	1217.403687	2519.001465	1681.609863	35.664333
805.704468	1242.434326	2480.317627	1661.130127	33.823528
806.012939	1240.158813	2434.807373	1645.201538	33.904758
806.321350	1231.056763	2453.011475	1688.436401	37.430164
806.629761	1185.546387	2464.388916	1708.916138	40.925270
806.938049	1269.740601	2446.184814	1631.548462	30.754358
807.246277	1246.985352	2525.828125	1720.293701	37.010677
807.554504	1208.301514	2446.184814	1638.375000	34.742653
807.862671	1212.852539	2475.766602	1638.375000	33.693699
808.170715	1174.168701	2493.970703	1688.436401	38.965519
808.478821	1310.699951	2478.042236	1695.262939	32.943462
808.786804	1269.740601	2441.633789	1542.803101	23.300972
809.094727	1203.750488	2512.175049	1592.864502	29.739124
809.402649	1301.597900	2405.225586	1677.058838	34.020615
809.710510	1240.158813	2407.500977	1631.548462	33.528271
810.018311	1269.740601	2464.388916	1692.987427	35.428570
810.326050	1219.679199	2439.358398	1652.028076	35.447754
810.633667	1256.087524	2352.888428	1567.833862	28.423239
810.941345	1253.812012	2305.102539	1629.272949	35.714291
811.248901	1192.372925	2257.316650	1563.282837	34.829063
811.556396	1228.781250	2400.674561	1663.405762	37.087379
811.863892	1269.740601	2311.929199	1601.966675	31.877731
812.171326	1281.118164	2327.857666	1595.140137	30.000011
812.478699	1269.740601	2273.245361	1579.211426	30.838999
812.786011	1290.220337	2164.020264	1581.486938	33.333328
813.093262	1224.230225	2307.378174	1617.895264	36.344532
813.400391	1267.465088	2266.418701	1622.446289	35.535305
813.707642	1258.363037	2311.929199	1554.180664	28.077745
814.014709	1278.842651	2332.408936	1611.068726	31.533476
814.321716	1215.128052	2270.969727	1674.783325	43.534489
814.628723	1203.750488	2277.796387	1551.905151	32.415249
814.935669	1283.393677	2243.663574	1529.150024	25.592424
815.242554	1219.679199	2275.520752	1599.691162	35.991383
815.549438	1221.954712	2245.938965	1683.885376	45.111111
815.856201	1174.168701	2293.724854	1622.446289	40.040653
816.162964	1226.505737	2289.173828	1590.588989	34.261238
816.469604	1151.413574	2327.857666	1608.793213	38.878143
816.776184	1292.495850	2300.551514	1572.384888	27.765236
817.082825	1246.985352	2248.214600	1551.905151	30.454544
817.389343	1267.465088	2305.102539	1545.078613	26.754385
817.695801	1201.474976	2255.041016	1572.384888	35.205189
818.002197	1237.883301	2350.613037	1540.527588	27.198364
818.308533	1244.709839	2336.959961	1622.446289	34.583328
818.614868	1285.669312	2293.724854	1611.068726	32.279911
818.921143	1231.056763	2305.102539	1554.180664	30.084742
819.227356	1212.852539	2478.042236	1645.201538	34.172661
819.533447	1256.087524	2368.817139	1556.456177	26.993858
819.839539	1217.403687	2407.500977	1620.170776	33.843208
820.145569	1244.709839	2519.001465	1656.579102	32.321430
820.451538	1292.495850	2607.746826	1642.926025	26.643597
820.757568	1256.087524	2746.553711	1683.885376	28.702286
821.063416	1199.199463	2792.063965	1768.079712	35.714291
821.369263	1203.750488	2858.054199	1888.682251	41.403023
821.675049	1162.791138	2962.728027	1838.620850	37.547413
821.980713	1244.709839	3153.871826	1941.019287	36.471992
822.286438	1217.403687	3345.015625	1947.845825	34.331551
822.592102	1267.465088	3927.548828	2095.754639	31.137724
822.897583	1256.087524	5604.607910	2894.462402	37.676605
823.203125	1224.230225	7934.741211	3647.659912	36.113937
823.508545	1231.056763	10055.526367	4421.336914	36.152657
823.813965	1269.740601	11131.847656	4778.593750	35.579140
824.119263	1224.230225	10251.221680	4350.795898	34.635746
824.424622	1187.821899	8888.184570	4027.671875	36.879433
824.729858	1262.914063	7525.147461	3360.944336	33.502907
825.035095	1215.128052	6253.131348	3124.290039	37.895210
825.340149	1253.812012	5891.323242	2867.156250	34.789009
825.645264	1333.455200	5267.830566	2573.614014	31.521111
825.950256	1192.372925	4789.971191	2478.042236	35.736881
826.255310	1240.158813	4378.102051	2425.705078	37.780994
826.560242	1194.648438	4200.611328	2343.786377	38.228615
826.865112	1210.577026	4041.324951	2284.622803	37.942120
827.169922	1228.781250	3913.895752	2107.132324	32.711868
827.474670	1158.240112	3877.487549	2245.938965	39.999992
827.779419	1228.781250	4330.315918	2343.786377	35.950111
828.084045	1246.985352	4821.828613	2548.583252	36.409927
828.388672	1244.709839	5313.341309	2669.185791	35.011181
828.693176	1262.914063	5461.250000	2616.848877	32.249321
828.997681	1162.791138	5022.074219	2519.001465	35.141510
829.302124	1244.709839	4434.990234	2323.306641	33.808842
829.606567	1233.332275	3816.048340	2154.918213	35.682819
829.910828	1185.546387	3634.006836	2047.968750	35.223045
830.215149	1276.567139	3272.198975	1915.988525	32.041050
830.519348	1176.444214	3201.657715	1829.518677	32.247192
830.823547	1149.138062	2992.309814	1886.406738	40.000000
831.127686	1192.372925	2878.533936	1729.395752	31.848846
831.431763	1203.750488	2721.522949	1692.987427	32.233879
831.735779	1240.158813	2509.899414	1761.253052	41.039425
832.039734	1201.474976	2555.409912	1679.334351	35.294117
832.343628	1292.495850	2493.970703	1595.140137	25.189398
832.647461	1292.495850	2457.562500	1604.242188	26.757811
832.951233	1249.260864	2402.949951	1572.384888	28.007895
833.255127	1219.679199	2523.552490	1620.170776	30.715528
833.558777	1242.434326	2498.521729	1658.854614	33.152176
833.862366	1260.638550	2500.797363	1724.844727	37.431187
834.165955	1226.505737	2807.992676	1784.008301	35.251797
834.469482	1240.158813	3115.187988	1820.416626	30.946602
834.773010	1194.648438	3586.220703	2059.346436	36.156048
835.076416	1287.944824	3759.160400	2118.509766	33.609570
835.379822	1258.363037	3775.089111	2066.172852	32.097645
835.683105	1274.291626	3695.445801	2011.560425	30.451128
835.986389	1228.781250	3376.872803	1970.601074	34.533901
836.289612	1208.301514	3067.402100	1886.406738	36.474907
836.592773	1278.842651	2846.676514	1836.345337	35.558784
836.895874	1285.669312	2721.522949	1765.804199	33.438984
837.198914	1319.802124	2632.777588	1749.875488	32.755627
837.501892	1281.118164	2598.644775	1670.232300	29.533684
837.804871	1196.923950	2514.450439	1649.752563	34.369602
838.107666	1192.372925	2482.593262	1613.344238	32.627861
838.410583	1221.954712	2332.408936	1617.895264	35.655727
838.713379	1201.474976	2248.214600	1658.854614	43.695644
839.016052	1215.128052	2189.051025	1492.741699	28.504683
839.318787	1196.923950	2138.989502	1495.017212	31.642517
839.621338	1228.781250	2059.346436	1540.527588	37.534241
839.923889	1265.189575	2111.683350	1499.568237	27.688173
840.226440	1258.363037	2013.835938	1545.078613	37.951801
840.528931	1201.474976	2100.305664	1533.701050	36.962032
840.831299	1231.056763	2252.765625	1476.812988	24.053450
841.133606	1240.158813	2261.867676	1492.741699	24.721611
841.435913	1242.434326	2286.898438	1606.517700	34.858391
841.738220	1242.434326	2348.337402	1579.211426	30.452677
842.040405	1246.985352	2214.081787	1542.803101	30.588238
842.342529	1196.923950	2186.775391	1547.354126	35.402302
842.644592	1269.740601	2054.795166	1533.701050	33.623199
842.946594	1187.821899	2084.376953	1513.221313	36.294415
843.248596	1224.230225	2079.825928	1529.150024	35.638306
843.550598	1180.995239	1911.437500	1458.608887	38.006241
843.852478	1203.750488	2045.693237	1422.200562	25.945953
844.154236	1276.567139	1954.672363	1508.670288	34.228191
844.455994	1208.301514	1875.029175	1406.271851	29.692833
844.757690	1167.342163	1847.722900	1360.761475	28.428099
845.059326	1224.230225	1893.233276	1469.986450	36.734695
845.360962	1242.434326	1845.447388	1383.516602	23.396223
845.662476	1276.567139	1802.212524	1429.027100	29.004337
845.963989	1231.056763	1813.590088	1385.792114	26.562489
846.265381	1237.883301	1793.110352	1385.792114	26.639339
846.566772	1146.862427	1790.834839	1433.578125	44.522980
846.868042	1299.322388	1790.834839	1403.996338	21.296297
847.169373	1228.781250	1765.804199	1469.986450	44.915249
847.470581	1249.260864	1786.283813	1358.485962	20.339001
847.771729	1231.056763	1777.181763	1406.271851	32.083332
848.072815	1281.118164	1695.262939	1344.832764	15.384620
848.373901	1233.332275	1770.355225	1326.628662	17.372887
848.674866	1274.291626	1740.773438	1374.414551	21.463415
848.975891	1269.740601	1720.293701	1374.414551	23.232323
849.276794	1267.465088	1749.875488	1324.353149	11.792461
849.577637	1233.332275	1763.528564	1347.108276	21.459223
849.878357	1297.046875	1697.538574	1431.302612	33.522728
850.179077	1187.821899	1679.334351	1342.557251	31.481472
850.479736	1226.505737	1667.956787	1422.200562	44.329903
850.780396	1221.954712	1681.609863	1331.179688	23.762373
851.080994	1203.750488	1720.293701	1451.782227	48.017616
851.381470	1206.026001	1688.436401	1449.506714	50.471695
851.681946	1210.577026	1642.926025	1374.414551	37.894737
851.982361	1260.638550	1667.956787	1381.241089	29.608921
852.282715	1228.781250	1699.814087	1301.597900	15.458933
852.583008	1192.372925	1652.028076	1262.914063	15.346535
852.883240	1274.291626	1713.467163	1269.740601	-1.036266
853.183411	1285.669312	1708.916138	1342.557251	13.440843
853.483521	1183.270874	1692.987427	1358.485962	34.375004
853.783630	1231.056763	1661.130127	1360.761475	30.158741
854.083679	1233.332275	1665.681274	1328.904175	22.105267
854.383667	1242.434326	1649.752563	1322.077637	19.553093
854.683533	1174.168701	1613.344238	1328.904175	35.233173
854.983337	1187.821899	1661.130127	1269.740601	17.307686
855.283203	1237.883301	1586.037964	1301.597900	18.300659
855.582886	1206.026001	1677.058838	1376.690063	36.231884
855.882629	1262.914063	1661.130127	1315.250977	13.142843
856.182312	1228.781250	1665.681274	1308.424438	18.229156
856.481873	1260.638550	1631.548462	1317.526489	15.337400
856.781372	1185.546387	1681.609863	1342.557251	31.651365
857.080872	1196.923950	1667.956787	1290.220337	19.806768
857.380310	1265.189575	1654.303589	1408.547363	36.842102
857.679688	1251.536499	1720.293701	1297.046875	9.708731
857.979004	1206.026001	1597.415649	1344.832764	35.465107
858.278259	1221.954712	1658.854614	1349.383789	29.166653
858.577454	1251.536499	1670.232300	1290.220337	9.239127
858.876648	1228.781250	1647.477051	1312.975464	20.108685
859.175720	1258.363037	1638.375000	1351.659302	24.550877
859.474792	1276.567139	1629.272949	1363.036987	24.516140
859.773743	1235.607788	1561.007324	1253.812012	5.594422
860.072693	1235.607788	1574.660400	1335.730713	29.530203
860.371521	1301.597900	1711.191650	1413.098389	27.222214
860.670349	1315.250977	1599.691162	1360.761475	16.000025
860.969116	1233.332275	1649.752563	1331.179688	23.497272
861.267883	1269.740601	1647.477051	1338.006226	18.072290
861.566589	1249.260864	1642.926025	1360.761475	28.323717
861.865112	1228.781250	1608.793213	1315.250977	22.754475
862.163635	1260.638550	1647.477051	1312.975464	13.529396
862.462158	1251.536499	1590.588989	1303.873413	15.436228
862.760620	1231.056763	1579.211426	1301.597900	20.261436
863.059021	1246.985352	1595.140137	1351.659302	30.065350
863.357361	1310.699951	1583.762451	1338.006226	10.000009
863.655640	1253.812012	1670.232300	1328.904175	18.032782
863.953857	1219.679199	1654.303589	1294.771362	17.277485
864.251953	1233.332275	1624.721802	1399.445313	42.441872
864.550110	1212.852539	1733.946899	1290.220337	14.847177
864.848206	1283.393677	1633.823975	1319.802124	10.389640
865.146179	1249.260864	1633.823975	1281.118164	8.284024
865.444092	1231.056763	1649.752563	1281.118164	11.956509
865.741943	1253.812012	1570.109375	1328.904175	23.741001
866.039795	1171.893188	1658.854614	1303.873413	27.102808
866.337646	1224.230225	1601.966675	1351.659302	33.734917
866.635376	1281.118164	1674.783325	1278.842651	-0.578033
866.933044	1258.363037	1624.721802	1353.934937	26.086969
867.230652	1249.260864	1617.895264	1306.148926	15.432109
867.528198	1228.781250	1656.579102	1324.353149	22.340435
867.825745	1256.087524	1672.507813	1292.495850	8.743168
868.123230	1242.434326	1665.681274	1308.424438	15.591397
868.420593	1133.209351	1631.548462	1278.842651	29.223736
868.717896	1249.260864	1663.405762	1319.802124	17.032990
869.015198	1249.260864	1636.099487	1356.210449	27.647079
869.312439	1312.975464	1649.752563	1324.353149	3.378402
869.609619	1253.812012	1633.823975	1324.353149	18.562874
869.906738	1246.985352	1640.650513	1283.393677	9.248551
870.203796	1310.699951	1715.742676	1312.975464	0.561796
870.500854	1196.923950	1576.935913	1306.148926	28.742510
870.797791	1260.638550	1631.548462	1353.934937	25.153381
871.094666	1281.118164	1588.313477	1338.006226	18.518532
871.391602	1196.923950	1522.323364	1297.046875	30.769239
871.688293	1272.016113	1583.762451	1317.526489	14.598528
871.985107	1183.270874	1608.793213	1297.046875	26.737963
872.281738	1256.087524	1608.793213	1338.006226	23.225796
872.578369	1235.607788	1649.752563	1240.158813	1.098897
872.874939	1206.026001	1683.885376	1294.771362	18.571440
873.171509	1251.536499	1529.150024	1283.393677	11.475369
873.467957	1215.128052	1583.762451	1310.699951	25.925930
873.764343	1221.954712	1597.415649	1347.108276	33.333313
874.060669	1265.189575	1661.130127	1353.934937	22.413809
874.356995	1165.066650	1563.282837	1333.455200	42.285713
874.653198	1171.893188	1583.762451	1340.281738	40.883980
874.949463	1299.322388	1615.619751	1369.863525	22.302158
875.245544	1256.087524	1601.966675	1274.291626	5.263139
875.541626	1185.546387	1606.517700	1353.934937	40.000008
875.837646	1249.260864	1581.486938	1315.250977	19.863014
876.133606	1246.985352	1624.721802	1333.455200	22.891582
876.429565	1278.842651	1622.446289	1351.659302	21.192049
876.725403	1221.954712	1581.486938	1297.046875	20.886072
877.021179	1251.536499	1624.721802	1324.353149	19.512197
877.316956	1242.434326	1649.752563	1372.139038	31.843580
877.612610	1262.914063	1752.151001	1285.669312	4.651172
877.908203	1162.791138	1645.201538	1251.536499	18.396236
878.203857	1206.026001	1654.303589	1315.250977	24.365479
878.499390	1274.291626	1631.548462	1290.220337	4.458616
878.794800	1306.148926	1640.650513	1344.832764	11.564620
879.090271	1224.230225	1733.946899	1340.281738	22.767847
879.385559	1251.536499	1638.375000	1338.006226	22.352926
879.680847	1219.679199	1677.058838	1435.853638	47.263680
879.976196	1258.363037	1640.650513	1353.934937	25.000008
880.271301	1235.607788	1763.528564	1367.588013	25.000006
880.566467	1201.474976	1799.937012	1456.333252	42.585537
880.861572	1235.607788	1897.784302	1492.741699	38.831627
881.156555	1199.199463	1947.845825	1481.364014	37.689964
881.451477	1224.230225	2241.387939	1465.435425	23.713648
881.746460	1240.158813	2662.359375	1665.681274	29.920004
882.041321	1224.230225	3422.383301	1961.498901	33.540371
882.336121	1192.372925	4211.988770	2225.459229	34.212509
882.630798	1194.648438	4817.277344	2384.745850	32.851761
882.925537	1208.301514	5056.207031	2418.878662	31.460678
883.220215	1178.719727	4651.164551	2371.092773	34.338142
883.514771	1208.301514	4346.244629	2218.632813	32.197247
883.809326	1196.923950	4296.183105	2123.060791	29.882523
884.103760	1171.893188	3891.140625	2072.999512	33.138077
884.398132	1292.495850	3515.679688	1959.223389	29.989761
884.692505	1199.199463	3456.516113	2050.244141	37.701607
884.986816	1199.199463	3208.484375	1763.528564	28.086067
885.281067	1224.230225	2928.595215	1852.273926	36.849133
885.575256	1312.975464	2848.952148	1768.079712	29.629633
885.869385	1185.546387	2650.981689	1640.650513	31.055901
886.163452	1221.954712	2539.481201	1631.548462	31.088085
886.457458	1199.199463	2371.092773	1517.772339	27.184462
886.751465	1244.709839	2116.234375	1574.660400	37.859009
887.045410	1240.158813	2077.550537	1458.608887	26.086964
887.339233	1212.852539	2009.284912	1438.129150	28.285717
887.632996	1246.985352	1968.325439	1388.067749	19.558374
887.926758	1272.016113	1845.447388	1360.761475	15.476198
888.220398	1183.270874	1804.488037	1417.649414	37.728924
888.514099	1272.016113	1872.753662	1397.169800	20.833338
888.807678	1215.128052	1793.110352	1331.179688	20.078753
889.101196	1301.597900	1758.977539	1335.730713	7.462687
889.394653	1176.444214	1704.365112	1340.281738	31.034483
889.688049	1244.709839	1745.324463	1274.291626	5.909094
889.981384	1212.852539	1677.058838	1374.414551	34.803925
890.274719	1162.791138	1683.885376	1281.118164	22.707415
890.567932	1244.709839	1608.793213	1331.179688	23.750013
>>>>>End Processed Spectral Data<<<<<
