Jaz Data File
++++++++++++++++++++++++++++++++++++
Date: Wed Feb 07 06:41:01 2024
User: jaz
Dark Spectrum Present: Yes
Reference Spectrum Present: Yes
Processed Spectrum Present: Yes
Spectrometers: JAZA3692
Integration Time (usec): 40000 (JAZA3692)
Spectra Averaged: 1 (JAZA3692)
Boxcar Smoothing: 0 (JAZA3692)
Correct for Electrical Dark: No (JAZA3692)
Strobe/Lamp Enabled: Yes (JAZA3692)
Correct for Detector Non-linearity: No (JAZA3692)
Correct for Stray Light: No (JAZA3692)
Number of Pixels in Processed Spectrum: 2048
>>>>>Begin Processed Spectral Data<<<<<
W	D	R	S	P
190.244385	0.000000	0.000000	0.000000	0.000000
190.627136	0.000000	0.000000	0.000000	0.000000
191.009842	1133.209351	1160.515625	1069.494751	-233.333191
191.392532	1219.679199	1183.270874	1133.209351	237.500214
191.775177	1244.709839	1165.066650	1135.484863	137.142899
192.157791	1153.689087	1171.893188	1167.342163	75.000000
192.540390	1174.168701	1199.199463	1215.128052	163.636047
192.922943	1128.658325	1212.852539	1249.260864	143.243256
193.305481	1171.893188	1212.852539	1253.812012	200.000305
193.687958	1210.577026	1221.954712	1183.270874	-239.997421
194.070419	1153.689087	1167.342163	1162.791138	66.666664
194.452866	1206.026001	1203.750488	1267.465088	-2700.010742
194.835251	1194.648438	1260.638550	1199.199463	6.896526
195.217621	1242.434326	1187.821899	1174.168701	125.000168
195.599960	1226.505737	1178.719727	1130.933838	199.999741
195.982254	1228.781250	1260.638550	1187.821899	-128.571320
196.364517	1208.301514	1178.719727	1155.964600	176.922760
196.746750	1240.158813	1149.138062	1226.505737	14.999960
197.128952	1224.230225	1199.199463	1190.097412	136.363464
197.511139	1180.995239	1171.893188	1190.097412	-100.001343
197.893280	1224.230225	1187.821899	1221.954712	6.249979
198.275391	1192.372925	1224.230225	1226.505737	107.142830
198.657471	1206.026001	1251.536499	1201.474976	-9.999947
199.039520	1203.750488	1237.883301	1215.128052	33.333214
199.421539	1208.301514	1210.577026	1187.821899	-900.000000
199.803513	1180.995239	1153.689087	1201.474976	-75.000450
200.185471	1180.995239	1196.923950	1194.648438	85.714394
200.567383	1221.954712	1244.709839	1217.403687	-20.000000
200.949265	1119.556274	1208.301514	1196.923950	87.179520
201.331131	1167.342163	1199.199463	1140.035889	-85.714340
201.712967	1192.372925	1183.270874	1158.240112	375.001343
202.094742	1176.444214	1171.893188	1135.484863	900.002686
202.476517	1226.505737	1240.158813	1249.260864	166.666672
202.858231	1153.689087	1158.240112	1155.964600	50.000000
203.239944	1183.270874	1167.342163	1101.352051	514.284058
203.621582	1192.372925	1190.097412	1217.403687	-1100.005371
204.003235	1237.883301	1194.648438	1117.280762	278.947418
204.384827	1219.679199	1251.536499	1144.586914	-235.714539
204.766388	1167.342163	1228.781250	1178.719727	18.518444
205.147934	1185.546387	1176.444214	1153.689087	349.996643
205.529449	1146.862427	1231.056763	1219.679199	86.486542
205.910904	1201.474976	1242.434326	1165.066650	-88.888924
206.292343	1117.280762	1201.474976	1178.719727	72.972908
206.673767	1267.465088	1233.332275	1094.525513	506.666656
207.055115	1176.444214	1237.883301	1149.138062	-44.444267
207.436462	1251.536499	1199.199463	1171.893188	152.173904
207.817780	1151.413574	1224.230225	1208.301514	78.124908
208.199051	1235.607788	1217.403687	1151.413574	462.501343
208.580307	1080.872437	1219.679199	1158.240112	55.737686
208.961517	1212.852539	1187.821899	1171.893188	163.636856
209.342712	1174.168701	1215.128052	1217.403687	105.555840
209.723846	1246.985352	1190.097412	1192.372925	96.000008
210.104965	1167.342163	1144.586914	1155.964600	49.999733
210.486069	1224.230225	1194.648438	1201.474976	76.923172
210.867111	1128.658325	1231.056763	1167.342163	37.777763
211.248123	1233.332275	1201.474976	1149.138062	264.285461
211.629120	1115.005249	1212.852539	1137.760376	23.255756
212.010071	1219.679199	1167.342163	1171.893188	91.304390
212.390991	1171.893188	1180.995239	1153.689087	-200.000000
212.771881	1126.382813	1187.821899	1169.617676	70.370293
213.152756	1208.301514	1265.189575	1219.679199	20.000130
213.533569	1142.311401	1176.444214	1124.107300	-53.333141
213.914368	1165.066650	1137.760376	1130.933838	124.999886
214.295135	1215.128052	1174.168701	1212.852539	5.555539
214.675858	1128.658325	1151.413574	1210.577026	359.999146
215.056549	1203.750488	1160.515625	1206.026001	-5.263143
215.437225	1124.107300	1199.199463	1194.648438	93.939415
215.817841	1212.852539	1237.883301	1199.199463	-54.545189
216.198441	1183.270874	1178.719727	1153.689087	649.985229
216.579025	1183.270874	1242.434326	1203.750488	34.615314
216.959549	1206.026001	1199.199463	1135.484863	1033.336914
217.340057	1140.035889	1258.363037	1190.097412	42.307724
217.720535	1217.403687	1146.862427	1101.352051	164.515961
218.100967	1135.484863	1235.607788	1169.617676	34.090908
218.481369	1190.097412	1169.617676	1146.862427	211.111038
218.861740	1226.505737	1185.546387	1176.444214	122.222450
219.242065	1231.056763	1274.291626	1258.363037	63.157997
219.622391	1212.852539	1178.719727	1142.311401	206.666641
220.002670	1162.791138	1201.474976	1162.791138	0.000000
220.382919	1146.862427	1217.403687	1194.648438	67.741928
220.763123	1262.914063	1233.332275	1180.995239	276.923187
221.143295	1226.505737	1165.066650	1190.097412	59.259224
221.523453	1165.066650	1130.933838	1155.964600	26.666571
221.903549	1162.791138	1160.515625	1178.719727	-700.000000
222.283630	1089.974487	1221.954712	1206.026001	87.930984
222.663696	1237.883301	1192.372925	1201.474976	80.000053
223.043701	1155.964600	1235.607788	1162.791138	8.571403
223.423676	1158.240112	1206.026001	1260.638550	214.285934
223.803635	1178.719727	1206.026001	1162.791138	-58.333073
224.183548	1190.097412	1165.066650	1203.750488	-54.545189
224.563431	1196.923950	1253.812012	1171.893188	-44.000027
224.943283	1194.648438	1167.342163	1171.893188	83.333405
225.323105	1178.719727	1228.781250	1228.781250	100.000000
225.702881	1215.128052	1210.577026	1135.484863	1750.005371
226.082642	1187.821899	1246.985352	1176.444214	-19.230936
226.462357	1203.750488	1226.505737	1133.209351	-309.999420
226.842041	1167.342163	1287.944824	1176.444214	7.547139
227.221695	1233.332275	1233.332275	1171.893188	0.000000
227.601318	1151.413574	1233.332275	1203.750488	63.888847
227.980911	1183.270874	1283.393677	1265.189575	81.818230
228.360474	1237.883301	1206.026001	1235.607788	7.142830
228.739990	1167.342163	1242.434326	1203.750488	48.484852
229.119476	1137.760376	1226.505737	1140.035889	2.564092
229.498932	1126.382813	1338.006226	1187.821899	29.032272
229.878372	1199.199463	1385.792114	1178.719727	-10.975639
230.257736	1190.097412	1472.261963	1212.852539	8.064488
230.637115	1133.209351	1426.751587	1237.883301	35.658905
231.016449	1190.097412	1372.139038	1165.066650	-13.750021
231.395737	1206.026001	1372.139038	1237.883301	19.178085
231.774994	1199.199463	1299.322388	1178.719727	-20.454592
232.154221	1201.474976	1438.129150	1287.944824	36.538483
232.533417	1171.893188	1240.158813	1158.240112	-19.999928
232.912582	1201.474976	1347.108276	1146.862427	-37.500042
233.291702	1206.026001	1322.077637	1192.372925	-11.764656
233.670792	1201.474976	1285.669312	1171.893188	-35.135128
234.049866	1196.923950	1267.465088	1167.342163	-41.935513
234.428894	1144.586914	1347.108276	1183.270874	19.101175
234.807892	1174.168701	1317.526489	1178.719727	3.174592
235.186874	1219.679199	1422.200562	1199.199463	-10.112383
235.565781	1151.413574	1429.027100	1206.026001	19.672106
235.944687	1174.168701	1397.169800	1194.648438	9.183693
236.323547	1135.484863	1347.108276	1137.760376	1.075265
236.702377	1160.515625	1342.557251	1167.342163	3.749987
237.081177	1155.964600	1388.067749	1140.035889	-6.862772
237.459946	1119.556274	1417.649414	1208.301514	29.770977
237.838669	1267.465088	1344.832764	1196.923950	-91.176498
238.217361	1149.138062	1342.557251	1121.831787	-14.117665
238.596039	1217.403687	1278.842651	1212.852539	-7.407591
238.974670	1160.515625	1315.250977	1180.995239	13.235252
239.353271	1208.301514	1383.516602	1208.301514	0.000000
239.731842	1149.138062	1422.200562	1187.821899	14.166660
240.110367	1180.995239	1335.730713	1221.954712	26.470642
240.488876	1187.821899	1422.200562	1219.679199	13.592236
240.867340	1201.474976	1390.343262	1171.893188	-15.662655
241.245789	1219.679199	1438.129150	1130.933838	-40.625031
241.624176	1089.974487	1508.670288	1194.648438	25.000000
242.002548	1171.893188	1413.098389	1210.577026	16.037729
242.380890	1155.964600	1542.803101	1199.199463	11.176463
242.759186	1210.577026	1672.507813	1256.087524	9.852233
243.137451	1171.893188	1788.559326	1212.852539	6.642063
243.515686	1158.240112	1784.008301	1231.056763	11.636362
243.893890	1140.035889	1733.946899	1219.679199	13.409974
244.272049	1160.515625	1790.834839	1103.627563	-9.025278
244.650192	1135.484863	1686.160889	1228.781250	16.942156
245.028290	1221.954712	1647.477051	1167.342163	-12.834238
245.406357	1103.627563	1642.926025	1226.505737	22.784819
245.784393	1171.893188	1654.303589	1235.607788	13.207551
246.162384	1208.301514	1570.109375	1258.363037	13.836494
246.540359	1219.679199	1661.130127	1174.168701	-10.309299
246.918289	1167.342163	1722.569214	1235.607788	12.295083
247.296204	1130.933838	1909.161987	1226.505737	12.280704
247.674057	1208.301514	2143.540527	1262.914063	5.839422
248.051895	1183.270874	2275.520752	1244.709839	5.624992
248.429703	1244.709839	2387.021240	1267.465088	1.992036
248.807465	1153.689087	2341.510986	1269.740601	9.770111
249.185196	1185.546387	2177.673340	1265.189575	8.027520
249.562897	1178.719727	2038.866699	1242.434326	7.407408
249.940567	1199.199463	1929.641602	1242.434326	5.918999
250.318192	1174.168701	1925.090576	1115.005249	-7.878776
250.695801	1203.750488	1790.834839	1203.750488	0.000000
251.073349	1165.066650	1688.436401	1262.914063	18.695656
251.450882	1155.964600	1697.538574	1171.893188	2.941166
251.828400	1203.750488	1793.110352	1249.260864	7.722001
252.205872	1201.474976	1749.875488	1155.964600	-8.298748
252.583313	1169.617676	1752.151001	1228.781250	10.156256
252.960693	1101.352051	1881.855713	1242.434326	18.075800
253.338074	1151.413574	1906.886475	1219.679199	9.036145
253.715408	1185.546387	1897.784302	1183.270874	-0.319488
254.092682	1180.995239	1836.345337	1249.260864	10.416665
254.469955	1180.995239	1774.906250	1206.026001	4.214564
254.847198	1190.097412	1642.926025	1165.066650	-5.527646
255.224365	1165.066650	1706.640625	1240.158813	13.865541
255.601563	1217.403687	1638.375000	1272.016113	12.972957
255.978683	1192.372925	1672.507813	1126.382813	-13.744078
256.355743	1140.035889	1636.099487	1199.199463	11.926611
256.732819	1183.270874	1713.467163	1167.342163	-3.004304
257.109894	1206.026001	1729.395752	1190.097412	-3.043468
257.486877	1158.240112	1722.569214	1228.781250	12.500000
257.863831	1208.301514	1772.630737	1210.577026	0.403224
258.240753	1171.893188	1861.375977	1237.883301	9.570959
258.617645	1178.719727	1834.069824	1253.812012	11.458346
258.994507	1112.729614	1961.498901	1201.474976	10.455770
259.371307	1171.893188	2070.723877	1185.546387	1.518996
259.748108	1128.658325	2202.704102	1237.883301	10.169490
260.124878	1112.729614	2380.194824	1281.118164	13.285458
260.501617	1169.617676	2614.573486	1240.158813	4.881889
260.878296	1162.791138	2728.349365	1269.740601	6.831395
261.254944	1194.648438	2960.452637	1294.771362	5.670104
261.631561	1135.484863	2883.084961	1333.455200	11.328126
262.008179	1117.280762	2639.604248	1196.923950	5.231686
262.384735	1174.168701	2341.510986	1121.831787	-4.483425
262.761261	1124.107300	2189.051025	1249.260864	11.752130
263.137695	1105.903076	2050.244141	1235.607788	13.734943
263.514191	1174.168701	2070.723877	1201.474976	3.045688
263.890594	1190.097412	2107.132324	1262.914063	7.940445
264.267029	1215.128052	1938.743774	1326.628662	15.408815
264.643341	1192.372925	2041.142212	1272.016113	9.383373
265.019653	1185.546387	1922.815063	1278.842651	12.654310
265.395935	1169.617676	2007.009399	1308.424438	16.576084
265.772217	1212.852539	1986.529663	1242.434326	3.823531
266.148407	1158.240112	1929.641602	1249.260864	11.799400
266.524597	1144.586914	2068.448486	1317.526489	18.719208
266.900726	1146.862427	2109.407715	1246.985352	10.401893
267.276855	1219.679199	2136.714111	1224.230225	0.496276
267.652924	1085.423462	2327.857666	1276.567139	15.384611
268.028992	1140.035889	2298.276123	1206.026001	5.697446
268.404999	1217.403687	2239.112549	1272.016113	5.345204
268.781006	1194.648438	2223.183838	1278.842651	8.185835
269.156921	1174.168701	2268.694336	1290.220337	10.602916
269.532837	1231.056763	2266.418701	1233.332275	0.219779
269.908661	1203.750488	2273.245361	1228.781250	2.340428
270.284546	1160.515625	2264.143311	1231.056763	6.391751
270.660339	1146.862427	2316.480225	1217.403687	6.031137
271.036133	1183.270874	2227.734863	1262.914063	7.625269
271.411835	1187.821899	2250.489990	1253.812012	6.209852
271.787537	1180.995239	2489.419678	1237.883301	4.347829
272.163239	1130.933838	2744.278076	1324.353149	11.988719
272.538849	1160.515625	2924.044189	1301.597900	8.000000
272.914459	1108.178589	2703.318604	1272.016113	10.271044
273.290070	1208.301514	2666.910400	1292.495850	5.772235
273.665588	1190.097412	2571.338623	1281.118164	6.589780
274.041046	1142.311401	2594.093750	1221.954712	5.485899
274.416565	1226.505737	2464.388916	1265.189575	3.124999
274.791962	1167.342163	2525.828125	1240.158813	5.360133
275.167389	1124.107300	2402.949951	1242.434326	9.252665
275.542755	1203.750488	2482.593262	1206.026001	0.177935
275.918060	1178.719727	2514.450439	1224.230225	3.407161
276.293365	1155.964600	2532.654541	1265.189575	7.933884
276.668640	1158.240112	2377.919189	1267.465088	8.955222
277.043854	1087.698975	2421.154053	1267.465088	13.481228
277.419037	1215.128052	2503.072998	1308.424438	7.243818
277.794189	1194.648438	2564.511963	1253.812012	4.318939
278.169312	1183.270874	2625.950928	1276.567139	6.466871
278.544373	1115.005249	2539.481201	1312.975464	13.897758
278.919464	1251.536499	2491.695313	1269.740601	1.467885
279.294464	1151.413574	2553.134277	1240.158813	6.331164
279.669464	1133.209351	2498.521729	1308.424438	12.833333
280.044403	1146.862427	2466.664551	1308.424438	12.241382
280.419312	1190.097412	2414.327637	1235.607788	3.717469
280.794189	1167.342163	2582.716064	1226.505737	4.180067
281.169037	1158.240112	2559.960938	1310.699951	10.876619
281.543854	1196.923950	2591.818115	1278.842651	5.872754
281.918671	1196.923950	2716.971924	1240.158813	2.844309
282.293365	1171.893188	2883.084961	1260.638550	5.186173
282.668091	1206.026001	2880.809326	1292.495850	5.163047
283.042786	1192.372925	2949.074951	1283.393677	5.181343
283.417419	1192.372925	3076.504150	1353.934937	8.574881
283.792053	1217.403687	2949.074951	1344.832764	7.358734
284.166595	1221.954712	2773.859863	1281.118164	3.812311
284.541138	1126.382813	2801.166016	1317.526489	11.413040
284.915619	1199.199463	2835.298828	1317.526489	7.232264
285.290100	1101.352051	2880.809326	1237.883301	7.672634
285.664520	1167.342163	2949.074951	1319.802124	8.556836
286.038940	1160.515625	2953.625977	1269.740601	6.091370
286.413300	1167.342163	2983.207764	1287.944824	6.641607
286.787628	1135.484863	3242.617188	1363.036987	10.799138
287.161896	1190.097412	3342.739990	1351.659302	7.505282
287.536194	1217.403687	3315.433838	1333.455200	5.531451
287.910400	1137.760376	3183.453613	1376.690063	11.679644
288.284607	1190.097412	3008.238525	1290.220337	5.506884
288.658752	1142.311401	2924.044189	1335.730713	10.855685
289.032867	1165.066650	2796.614990	1292.495850	7.810323
289.406921	1137.760376	2976.381104	1322.077637	10.024757
289.781006	1067.219238	2867.156250	1326.628662	14.412139
290.154999	1155.964600	2930.870850	1344.832764	10.641022
290.529022	1162.791138	2971.830078	1290.220337	7.044027
290.902954	1149.138062	3178.902588	1390.343262	11.883408
291.276825	1185.546387	3162.973877	1324.353149	7.019563
291.650757	1133.209351	3376.872803	1310.699951	7.910749
292.024597	1201.474976	3269.923340	1351.659302	7.260725
292.398407	1174.168701	3208.484375	1324.353149	7.382554
292.772156	1185.546387	3060.575439	1381.241089	10.436889
293.145905	1199.199463	3081.055176	1274.291626	3.990325
293.519592	1146.862427	3003.687500	1344.832764	10.661766
293.893280	1167.342163	3001.411865	1360.761475	10.545908
294.266907	1203.750488	3094.708252	1406.271851	10.709989
294.640533	1128.658325	3188.004639	1383.516602	12.375689
295.014069	1128.658325	3365.495361	1319.802124	8.545272
295.387604	1144.586914	3379.148438	1363.036987	9.775970
295.761078	1196.923950	3558.914551	1365.312500	7.129095
296.134552	1176.444214	3502.026611	1353.934937	7.632097
296.507996	1212.852539	3476.995850	1353.934937	6.231160
296.881378	1242.434326	3476.995850	1451.782227	9.368634
297.254730	1160.515625	3647.659912	1365.312500	8.234218
297.628021	1221.954712	3957.130615	1338.006226	4.242927
298.001282	1194.648438	3866.109863	1410.822876	8.091991
298.374573	1176.444214	3963.957275	1444.955688	9.632653
298.747803	1108.178589	3727.302979	1422.200562	11.989578
299.121002	1155.964600	3709.098877	1381.241089	8.823527
299.494141	1162.791138	3536.159424	1347.108276	7.766057
299.867188	1115.005249	3602.149414	1319.802124	8.234219
300.240265	1176.444214	3483.822266	1269.740601	4.043394
300.613312	1124.107300	3333.637939	1324.353149	9.062822
300.986328	1149.138062	3308.607178	1353.934937	9.483667
301.359314	1206.026001	3374.597412	1413.098389	9.548793
301.732239	1215.128052	3283.576416	1367.588013	7.370741
302.105103	1169.617676	3231.239502	1338.006226	8.167771
302.477997	1183.270874	3281.301025	1340.281738	7.483727
302.850830	1140.035889	3322.260254	1349.383789	9.593327
303.223602	1133.209351	3210.759766	1299.322388	7.995621
303.596375	1196.923950	3108.361328	1349.383789	7.976188
303.969116	1087.698975	3065.126465	1356.210449	13.578828
304.341766	1196.923950	3026.442627	1351.659302	8.457708
304.714478	1135.484863	3140.218750	1322.077637	9.307608
305.087067	1196.923950	2987.758789	1292.495850	5.336723
305.459656	1201.474976	3233.515137	1326.628662	6.159017
305.832214	1208.301514	3128.841064	1328.904175	6.279624
306.204681	1171.893188	3147.045166	1244.709839	3.686635
306.577148	1185.546387	3069.677490	1308.424438	6.521736
306.949646	1174.168701	3124.290039	1290.220337	5.950995
307.322021	1185.546387	3074.228516	1297.046875	5.903613
307.694397	1210.577026	3149.320801	1287.944824	3.990615
308.066742	1144.586914	3165.249512	1278.842651	6.644144
308.439026	1133.209351	3156.147461	1419.924927	14.173225
308.811279	1130.933838	3342.739990	1365.312500	10.596709
309.183502	1176.444214	3376.872803	1351.659302	7.962770
309.555695	1117.280762	3429.209961	1322.077637	8.858268
309.927887	1192.372925	3445.138428	1292.495850	4.444445
310.299988	1171.893188	3422.383301	1301.597900	5.763398
310.672058	1194.648438	3495.199951	1353.934937	6.923840
311.044128	1210.577026	3524.781738	1310.699951	4.326451
311.416168	1212.852539	3497.475586	1308.424438	4.183268
311.788147	1185.546387	3470.169189	1308.424438	5.378483
312.160065	1258.363037	3506.577637	1269.740601	0.506071
312.531982	1233.332275	3506.577637	1319.802124	3.803806
312.903870	1194.648438	3379.148438	1315.250977	5.520830
313.275696	1199.199463	3345.015625	1299.322388	4.665960
313.647491	1144.586914	3356.393066	1322.077637	8.024696
314.019318	1165.066650	3276.750000	1301.597900	6.465517
314.391022	1237.883301	3299.505127	1201.474976	-1.766004
314.762726	1158.240112	3331.362549	1356.210449	9.109948
315.134369	1194.648438	3604.425049	1347.108276	6.326721
315.505981	1160.515625	3572.567627	1397.169800	9.811321
315.877594	1171.893188	3690.894775	1388.067749	8.581756
316.249146	1115.005249	3558.914551	1312.975464	8.100555
316.620636	1196.923950	3322.260254	1388.067749	8.993579
316.992157	1140.035889	3345.015625	1287.944824	6.707950
317.363586	1185.546387	3190.280273	1274.291626	4.426784
317.735016	1206.026001	3201.657715	1258.363037	2.622580
318.106354	1206.026001	3156.147461	1319.802124	5.834310
318.477722	1167.342163	3231.239502	1310.699951	6.945974
318.849060	1162.791138	3240.341553	1210.577026	2.300107
319.220306	1183.270874	3251.719238	1306.148926	5.940591
319.591522	1215.128052	3404.179199	1338.006226	5.613307
319.962738	1178.719727	3399.628174	1324.353149	6.557381
320.333923	1126.382813	3347.291016	1235.607788	4.918032
320.705017	1212.852539	3292.678711	1290.220337	3.719917
321.076111	1190.097412	3440.587402	1322.077637	5.864511
321.447144	1269.740601	3256.270264	1328.904175	2.978238
321.818176	1219.679199	3276.750000	1369.863525	7.300883
322.189178	1210.577026	3092.432861	1369.863525	8.464331
322.560120	1135.484863	3317.709229	1278.842651	6.569342
322.931030	1190.097412	3301.780762	1283.393677	4.418099
323.301910	1162.791138	3322.260254	1347.108276	8.535298
323.672729	1128.658325	3529.332764	1294.771362	6.919433
324.043549	1249.260864	3629.455566	1274.291626	1.051627
324.414337	1130.933838	3649.935303	1310.699951	7.136404
324.785095	1140.035889	3884.313965	1374.414551	8.540631
325.155792	1115.005249	3927.548828	1367.588013	8.980581
325.526428	1217.403687	3909.344727	1344.832764	4.733725
325.897034	1149.138062	3891.140625	1272.016113	4.481326
326.267670	1105.903076	3831.977051	1244.709839	5.091819
326.638184	1221.954712	3813.772949	1292.495850	2.721685
327.008728	1155.964600	3879.762939	1292.495850	5.012531
327.379211	1215.128052	3779.640137	1294.771362	3.105593
327.749634	1176.444214	3688.619141	1196.923950	0.815219
328.120026	1151.413574	3661.312988	1233.332275	3.263824
328.490417	1224.230225	3656.761963	1267.465088	1.777361
328.860748	1174.168701	3686.343750	1294.771362	4.800727
329.231079	1212.852539	3529.332764	1331.179688	5.108058
329.601318	1203.750488	3538.434814	1324.353149	5.165695
329.971558	1128.658325	3661.312988	1297.046875	6.648697
330.341736	1190.097412	3627.180176	1333.455200	5.882352
330.711914	1190.097412	3695.445801	1221.954712	1.271572
331.082062	1133.209351	3645.384277	1297.046875	6.521740
331.452148	1180.995239	3722.751953	1376.690063	7.699195
331.822174	1094.525513	3461.067139	1317.526489	9.423075
332.192200	1158.240112	3745.507324	1338.006226	6.948108
332.562134	1171.893188	3740.956299	1299.322388	4.960143
332.932129	1171.893188	3800.119629	1333.455200	6.147187
333.302063	1174.168701	3900.242676	1367.588013	7.095160
333.671906	1165.066650	3979.885986	1299.322388	4.769604
334.041718	1190.097412	4098.212891	1315.250977	4.303597
334.411499	1155.964600	4102.764160	1374.414551	7.413126
334.781281	1221.954712	4027.671875	1237.883301	0.567719
335.151001	1183.270874	4075.457764	1287.944824	3.619197
335.520721	1149.138062	4004.916504	1281.118164	4.621511
335.890350	1142.311401	3993.539063	1315.250977	6.065443
336.259979	1187.821899	4016.294189	1269.740601	2.896217
336.629547	1160.515625	3911.620361	1285.669312	4.549216
336.999084	1137.760376	4016.294189	1342.557251	7.114625
337.368622	1130.933838	4000.365479	1294.771362	5.709755
337.738098	1249.260864	3943.477539	1360.761475	4.138516
338.107513	1194.648438	3991.263428	1306.148926	3.986980
338.476898	1219.679199	3950.304199	1290.220337	2.583333
338.846252	1158.240112	4027.671875	1228.781250	2.458366
339.215576	1151.413574	4064.080078	1360.761475	7.187500
339.584869	1219.679199	4127.794922	1306.148926	2.973394
339.954132	1185.546387	3970.783691	1292.495850	3.839869
340.323334	1167.342163	3925.273438	1217.403687	1.815184
340.692505	1165.066650	3948.028564	1310.699951	5.233033
341.061646	1206.026001	3879.762939	1281.118164	2.808510
341.430786	1121.831787	4027.671875	1340.281738	7.517618
341.799896	1176.444214	3973.059326	1331.179688	5.532955
342.168915	1178.719727	4116.416992	1283.393677	3.563129
342.537903	1144.586914	4168.753906	1283.393677	4.589917
342.906830	1226.505737	4166.478516	1374.414551	5.030959
343.275757	1233.332275	4400.857422	1322.077637	2.801726
343.644684	1208.301514	4409.959473	1324.353149	3.624736
344.013550	1231.056763	4289.356934	1315.250977	2.752974
344.382355	1201.474976	4498.704590	1399.445313	6.004142
344.751129	1176.444214	4785.420410	1326.628662	4.161414
345.119873	1128.658325	4871.890137	1367.588013	6.382978
345.488586	1149.138062	4940.155762	1335.730713	4.921968
345.857269	1165.066650	5019.798828	1397.169800	6.021252
346.225891	1244.709839	5292.861328	1353.934937	2.698148
346.594482	1190.097412	5199.564941	1406.271851	5.391600
346.963043	1174.168701	5179.085449	1353.934937	4.488638
347.331543	1194.648438	5012.972168	1401.720825	5.423123
347.700043	1103.627563	4815.001953	1338.006226	6.315145
348.068512	1162.791138	4651.164551	1285.669312	3.522506
348.436951	1212.852539	4544.214844	1322.077637	3.278692
348.805328	1158.240112	4610.205078	1401.720825	7.053395
349.173645	1099.076538	4478.225098	1301.597900	5.993266
349.541931	1144.586914	4580.623535	1372.139038	6.622518
349.910217	1187.821899	4667.093262	1310.699951	3.531718
350.278473	1208.301514	4753.562988	1392.618774	5.198975
350.646667	1153.689087	4824.104004	1369.863525	5.889646
351.014801	1165.066650	4903.747559	1385.792114	5.903832
351.382935	1178.719727	4794.522461	1351.659302	4.782882
351.751007	1112.729614	4892.369629	1385.792114	7.224564
352.119049	1183.270874	4917.400391	1401.720825	5.850091
352.487091	1190.097412	4853.686035	1349.383789	4.347824
352.855072	1237.883301	5010.696777	1374.414551	3.618818
353.222992	1210.577026	5076.687012	1335.730713	3.237200
353.590881	1187.821899	5012.972168	1369.863525	4.759071
353.958740	1178.719727	5113.095215	1392.618774	5.436671
354.326599	1217.403687	5272.381836	1408.547363	4.713803
354.694397	1110.454102	5454.423340	1353.934937	5.605031
355.062134	1187.821899	5581.852539	1413.098389	5.126875
355.429840	1190.097412	5452.147949	1333.455200	3.363587
355.797516	1185.546387	5606.883301	1454.057739	6.073081
356.165192	1235.607788	5854.915039	1385.792114	3.251230
356.532776	1194.648438	5934.558105	1408.547363	4.512722
356.900360	1169.617676	6091.569336	1319.802124	3.051319
357.267883	1169.617676	6234.926758	1376.690063	4.088050
357.635376	1249.260864	6548.948730	1526.874512	5.238302
358.002808	1160.515625	6874.348145	1479.088501	5.575468
358.370270	1144.586914	7145.135254	1458.608887	5.233221
358.737640	1228.781250	7190.645508	1472.261963	4.083970
359.105011	1187.821899	7074.594238	1506.394775	5.411673
359.472321	1162.791138	6715.062012	1442.680176	5.040983
359.839569	1178.719727	6599.010254	1415.373901	4.366079
360.206787	1160.515625	6564.877441	1431.302612	5.010527
360.574005	1144.586914	6808.358398	1490.466064	6.106870
360.941193	1124.107300	7136.033203	1476.812988	5.866767
361.308319	1201.474976	7648.025391	1435.853638	3.635722
361.675415	1167.342163	8053.068359	1531.425537	5.287509
362.042450	1174.168701	8631.050781	1545.078613	4.974062
362.409424	1171.893188	9054.296875	1572.384888	5.080832
362.776428	1174.168701	9184.001953	1556.456177	4.772727
363.143402	1196.923950	8726.622070	1572.384888	4.986401
363.510284	1206.026001	8291.998047	1513.221313	4.335260
363.877136	1144.586914	7534.249512	1454.057739	4.843305
364.243988	1142.311401	7004.053223	1397.169800	4.347827
364.610779	1244.709839	6760.572266	1454.057739	3.795379
364.977539	1208.301514	6587.632813	1495.017212	5.329951
365.344269	1176.444214	6314.570313	1374.414551	3.852968
365.710938	1128.658325	6294.090332	1444.955688	6.123348
366.077576	1151.413574	6257.682129	1417.649414	5.213902
366.444183	1231.056763	6191.691895	1435.853638	4.128440
366.810760	1142.311401	6148.457031	1458.608887	6.318184
367.177277	1246.985352	6153.008301	1456.333252	4.267161
367.543823	1171.893188	6050.609863	1456.333252	5.830223
367.910248	1212.852539	6209.896484	1467.710938	5.100183
368.276642	1176.444214	6039.232422	1360.761475	3.790362
368.643036	1199.199463	5957.313477	1415.373901	4.543280
369.009399	1149.138062	5955.038086	1401.720825	5.255681
369.375671	1158.240112	5852.639648	1413.098389	5.428986
369.741974	1180.995239	5729.761230	1444.955688	5.802902
370.108215	1162.791138	5873.119141	1403.996338	5.120773
370.474396	1203.750488	5823.057617	1397.169800	4.187193
370.840546	1180.995239	5866.292480	1433.578125	5.390968
371.206665	1160.515625	5993.721680	1422.200562	5.414314
371.572784	1169.617676	6121.150879	1390.343262	4.457722
371.938843	1140.035889	6298.641602	1424.476074	5.513897
372.304840	1121.831787	6303.192383	1476.812988	6.851120
372.670807	1180.995239	6269.059570	1444.955688	5.187836
373.036713	1167.342163	6200.793945	1435.853638	5.334539
373.402649	1165.066650	6107.498047	1479.088501	6.353590
373.768524	1155.964600	6225.824707	1520.047852	7.181327
374.134308	1169.617676	6121.150879	1406.271851	4.779412
374.500122	1140.035889	6250.855469	1388.067749	4.853075
374.865875	1135.484863	6289.539551	1510.945801	7.284768
375.231567	1262.914063	6139.354980	1467.710938	4.199720
375.597260	1140.035889	6350.978516	1465.435425	6.244543
375.962891	1171.893188	6576.254883	1504.119263	6.147369
376.328461	1160.515625	6803.807129	1522.323364	6.411289
376.694031	1167.342163	6926.685547	1506.394775	5.887002
377.059540	1201.474976	7183.819336	1538.252075	5.629517
377.425049	1121.831787	7468.259277	1574.660400	7.135173
377.790497	1246.985352	7538.800293	1535.976563	4.593130
378.155945	1142.311401	8043.965820	1606.517700	6.726015
378.521301	1153.689087	7784.556641	1613.344238	6.932051
378.886597	1219.679199	7636.647949	1517.772339	4.645389
379.251892	1194.648438	7365.860840	1586.037964	6.342182
379.617157	1149.138062	6949.440430	1538.252075	6.708513
379.982422	1135.484863	6872.072754	1524.598877	6.783022
380.347595	1210.577026	6844.766602	1529.150024	5.654283
380.712738	1180.995239	6685.479980	1606.517700	7.730468
381.077820	1174.168701	6844.766602	1556.456177	6.741573
381.442902	1210.577026	6944.889648	1592.864502	6.666666
381.807953	1135.484863	6808.358398	1604.242188	8.263137
382.172974	1169.617676	6883.450195	1590.588989	7.367582
382.537933	1165.066650	6669.551270	1604.242188	7.978505
382.902832	1240.158813	6812.909180	1615.619751	6.737444
383.267700	1185.546387	6851.593262	1567.833862	6.746987
383.632538	1199.199463	6856.144043	1551.905151	6.234915
383.997345	1180.995239	7101.900391	1581.486938	6.764028
384.362152	1155.964600	7172.441406	1649.752563	8.207261
384.726898	1219.679199	7402.269043	1638.375000	6.772175
385.091553	1174.168701	7399.993652	1636.099487	7.419591
385.456238	1158.240112	7568.382324	1699.814087	8.448705
385.820862	1153.689087	7570.657715	1617.895264	7.234041
386.185425	1167.342163	7477.361328	1681.609863	8.150018
386.549988	1231.056763	7440.953125	1743.048950	8.244778
386.914490	1199.199463	7636.647949	1790.834839	9.190526
387.278961	1215.128052	7877.853027	1715.742676	7.513662
387.643372	1133.209351	7773.179199	1820.416626	10.349554
388.007782	1137.760376	7925.639160	1756.702026	9.118337
388.372101	1158.240112	7836.893555	1906.886475	11.209540
388.736450	1194.648438	7855.097656	1720.293701	7.892039
389.100739	1121.831787	7704.913574	1784.008301	10.058762
389.464966	1201.474976	7723.117676	1736.222412	8.199582
389.829163	1171.893188	7745.873047	1747.599976	8.757356
390.193329	1171.893188	7693.535645	1820.416626	9.944173
390.557495	1085.423462	7814.138672	1834.069824	11.126142
390.921570	1158.240112	7759.525879	1852.273926	10.513616
391.285614	1183.270874	7914.261230	1868.202637	10.175795
391.649597	1155.964600	8460.386719	1988.805176	11.401869
392.013550	1119.556274	8910.939453	1911.437500	10.163551
392.377502	1219.679199	9049.746094	2011.560425	10.113339
392.741455	1171.893188	8844.949219	2004.733887	10.854094
393.105316	1105.903076	8892.735352	2104.856689	12.828755
393.469086	1187.821899	8867.704102	2066.172852	11.437037
393.832886	1165.066650	8521.825195	2000.182739	11.351686
394.196655	1171.893188	8703.867188	2013.835938	11.178248
394.560333	1203.750488	8867.704102	2143.540527	12.262470
394.924042	1140.035889	8935.969727	2072.999512	11.967311
395.287659	1160.515625	8979.205078	2120.785400	12.281723
395.651245	1206.026001	8983.755859	2136.714111	11.966063
396.014771	1153.689087	8685.663086	2066.172852	12.114802
396.378296	1210.577026	8285.170898	2125.336426	12.930204
396.741791	1219.679199	8271.518555	2004.733887	11.132623
397.105255	1217.403687	8125.884766	2011.560425	11.495389
397.468628	1169.617676	7859.648926	2002.458252	12.448978
397.832001	1142.311401	7736.770508	1991.080688	12.870947
398.195313	1217.403687	8194.150391	2032.040039	11.676451
398.558624	1210.577026	7984.802734	2084.376953	12.898890
398.921844	1194.648438	8012.108887	2079.825928	12.983977
399.285095	1192.372925	7907.434570	2107.132324	13.622502
399.648254	1226.505737	8050.792480	2193.602051	14.171391
400.011383	1221.954712	8251.038086	2170.846924	13.499516
400.374451	1267.465088	8078.098633	2075.274902	11.861008
400.737549	1160.515625	8198.701172	2195.877686	14.710639
401.100586	1140.035889	8112.231445	2225.459229	15.567884
401.463562	1212.852539	7893.781738	2118.509766	13.555858
401.826508	1144.586914	8428.529297	2332.408936	16.307405
402.189392	1180.995239	7882.404297	2145.816162	14.397285
402.552246	1206.026001	8200.976563	2159.469238	13.630449
402.915070	1158.240112	8355.711914	2282.347412	15.618086
403.277893	1208.301514	8508.171875	2284.622803	14.744390
403.640656	1176.444214	8501.345703	2280.071777	15.066791
404.003326	1144.586914	8753.928711	2409.776611	16.626795
404.366028	1096.801025	9033.817383	2471.215576	17.316513
404.728699	1158.240112	9172.624023	2487.144287	16.581490
405.091248	1190.097412	9427.482422	2557.685303	16.602209
405.453857	1203.750488	9372.870117	2534.930176	16.295265
405.816345	1130.933838	9479.819336	2557.685303	17.089125
406.178833	1160.515625	9204.481445	2503.072998	16.690243
406.541260	1215.128052	9536.708008	2698.767578	17.828819
406.903687	1192.372925	9120.287109	2689.665527	18.886337
407.266052	1306.148926	8826.745117	2514.450439	16.066565
407.628387	1240.158813	8979.205078	2598.644775	17.553661
407.990662	1208.301514	8954.174805	2612.297852	18.125734
408.352905	1167.342163	8940.521484	2539.481201	17.652224
408.715118	1135.484863	8872.255859	2587.267090	18.764704
409.077332	1206.026001	8869.980469	2582.716064	17.963181
409.439484	1176.444214	8776.683594	2598.644775	18.712576
409.801575	1224.230225	8708.417969	2534.930176	17.512922
410.163605	1217.403687	8935.969727	2587.267090	17.747641
410.525635	1212.852539	9388.798828	2566.787354	16.559977
410.887604	1224.230225	9591.320313	2776.135498	18.547731
411.249573	1260.638550	9466.166992	2666.910400	17.138102
411.611481	1119.556274	9372.870117	2769.308838	19.988972
411.973328	1153.689087	9379.696289	2687.390137	18.644539
412.335144	1203.750488	9427.482422	2723.798340	18.483673
412.696930	1201.474976	9277.297852	2644.155273	17.864189
413.058685	1237.883301	9143.042969	2687.390137	18.336212
413.420410	1133.209351	9193.104492	2630.501953	18.577074
413.782104	1185.546387	9181.726563	2666.910400	18.525896
414.143707	1162.791138	9186.277344	2630.501953	18.292683
414.505310	1192.372925	9270.471680	2760.206787	19.408451
414.866852	1203.750488	9320.533203	2767.033203	19.259882
415.228394	1135.484863	9488.921875	2757.931152	19.422499
415.589874	1142.311401	9620.902344	2757.931152	19.055286
415.951324	1224.230225	9807.495117	2826.196777	18.663837
416.312683	1187.821899	10253.497070	2773.859863	17.494980
416.674072	1228.781250	10267.149414	2830.747803	17.724068
417.035370	1121.831787	10644.886719	2992.309814	19.641577
417.396667	1151.413574	10688.121094	2939.972900	18.754475
417.757935	1140.035889	10669.916992	2896.738037	18.433620
418.119141	1203.750488	11222.868164	3015.064941	18.078583
418.480286	1196.923950	11498.207031	3126.565674	18.732052
418.841400	1137.760376	12032.954102	3074.228516	17.773600
419.202484	1171.893188	12369.731445	3167.524902	17.821581
419.563568	1194.648438	12952.264648	3263.096924	17.592413
419.924591	1130.933838	13537.073242	3390.525879	18.213499
420.285553	1199.199463	13839.717773	3351.842041	17.029701
420.646484	1158.240112	14913.763672	3656.761963	18.163773
421.007355	1142.311401	14695.313477	3734.129639	19.123573
421.368225	1140.035889	16028.768555	3927.548828	18.722298
421.729065	1140.035889	16040.146484	3934.375488	18.753819
422.089874	1112.729614	16411.056641	4184.682617	20.080320
422.450592	1199.199463	16652.261719	4223.366699	19.570019
422.811279	1171.893188	16281.351563	4259.774902	20.436749
423.171936	1183.270874	16040.146484	4232.468750	20.523815
423.532593	1133.209351	16067.452148	4073.182129	19.686117
423.893127	1167.342163	16390.576172	4298.458984	20.568012
424.253723	1149.138062	16395.126953	4280.254395	20.537312
424.614197	1174.168701	16490.699219	4375.826660	20.903284
424.974670	1217.403687	17150.599609	4541.939453	20.865465
425.335052	1162.791138	17489.652344	4642.062500	21.310106
425.695496	1155.964600	16431.535156	4478.225098	21.748848
426.055817	1180.995239	16540.759766	4512.357910	21.688892
426.416168	1140.035889	16602.199219	4441.816406	21.353937
426.776398	1162.791138	15680.614258	4193.784668	20.877741
427.136627	1194.648438	14765.854492	4200.611328	22.149563
427.496826	1178.719727	14777.232422	4202.886719	22.238955
427.856995	1178.719727	14313.025391	4043.600586	21.812199
428.217102	1240.158813	13534.797852	3854.732178	21.265963
428.577179	1208.301514	13518.869141	3988.988037	22.587801
428.937195	1135.484863	13380.062500	3797.844238	21.743170
429.297180	1169.617676	12576.803711	3711.374512	22.282068
429.657135	1160.515625	12686.028320	3665.864014	21.737413
430.017059	1121.831787	13254.908203	3583.945313	20.292574
430.376984	1237.883301	12588.180664	3686.343750	21.571775
430.736786	1158.240112	12306.016602	3645.384277	22.310675
431.096588	1208.301514	12608.661133	3681.792725	21.696608
431.456360	1130.933838	12588.180664	3686.343750	22.303873
431.816071	1219.679199	12492.609375	3674.966064	21.780380
432.175781	1185.546387	12321.945313	3624.904541	21.904371
432.535400	1146.862427	12595.007813	3711.374512	22.401115
432.895020	1169.617676	12201.342773	3681.792725	22.772278
433.254578	1185.546387	12508.538086	3909.344727	24.055464
433.614105	1180.995239	12647.344727	3847.905762	23.258585
433.973602	1194.648438	13111.550781	4064.080078	24.078671
434.333038	1151.413574	13075.142578	4027.671875	24.122139
434.692444	1085.423462	13068.316406	4050.427002	24.743637
435.051819	1137.760376	13480.185547	4175.580566	24.612833
435.411133	1256.087524	13234.428711	4166.478516	24.297113
435.770416	1178.719727	12806.630859	4039.049316	24.598825
436.129669	1096.801025	13234.428711	4259.774902	26.059242
436.488861	1165.066650	12790.702148	4209.713379	26.189077
436.848083	1124.107300	12836.212891	4287.081055	27.006021
437.207184	1185.546387	12861.243164	4205.162598	25.862406
437.566254	1258.363037	13216.224609	4416.785645	26.412939
437.925293	1246.985352	13220.775391	4350.795898	25.921705
438.284363	1203.750488	13512.042969	4446.367676	26.344978
438.643311	1237.883301	13523.419922	4592.000977	27.301352
439.002258	1258.363037	13355.031250	4582.898926	27.483072
439.361145	1171.893188	14201.525391	4767.216309	27.593437
439.719971	1146.862427	14299.373047	4926.502441	28.737024
440.078827	1215.128052	14852.324219	4949.257813	27.381947
440.437592	1165.066650	15132.212891	5106.268555	28.217661
440.796295	1158.240112	15464.439453	5174.534180	28.073801
441.155029	1278.842651	15874.033203	5650.118164	29.950109
441.513672	1201.474976	16463.392578	5768.445313	29.923960
441.872253	1224.230225	16502.076172	5763.894043	29.714033
442.230865	1201.474976	16158.473633	5745.689941	30.381863
442.589386	1196.923950	15976.431641	5725.210449	30.638954
442.947876	1155.964600	16110.687500	5672.873535	30.203897
443.306335	1115.005249	15487.194336	5620.536621	31.348955
443.664764	1155.964600	15179.999023	5561.373047	31.413273
444.023102	1162.791138	15334.734375	5631.914063	31.535006
444.381500	1108.178589	15220.958984	5697.904297	32.521767
444.739777	1174.168701	15216.407227	5520.413574	30.951227
445.098022	1108.178589	15503.123047	5745.689941	32.216251
445.456238	1176.444214	15446.235352	5827.608887	32.594482
445.814423	1183.270874	15723.848633	5741.139160	31.345852
446.172577	1171.893188	16761.486328	6130.252930	31.805576
446.530701	1217.403687	16741.005859	6214.447266	32.189972
446.888733	1135.484863	17293.958984	6391.937988	32.530628
447.246765	1158.240112	18106.318359	6669.551270	32.518795
447.604736	1130.933838	17489.652344	6446.550293	32.494087
447.962677	1171.893188	17537.439453	6567.152832	32.967186
448.320587	1190.097412	17676.246094	6619.490234	32.933056
448.678436	1165.066650	17619.357422	6560.326660	32.789379
449.036255	1142.311401	17341.744141	6426.070801	32.616940
449.394043	1258.363037	16317.759766	6121.150879	32.290722
449.751770	1146.862427	16360.994141	6178.039063	33.069103
450.109467	1119.556274	16067.452148	6057.436523	33.033951
450.467163	1210.577026	15967.329102	6039.232422	32.721668
450.824768	1167.342163	15776.185547	6052.885254	33.442368
451.182343	1137.760376	15737.501953	5968.690918	33.089153
451.539886	1196.923950	14970.651367	5634.189453	32.215431
451.897369	1219.679199	15352.938477	5807.128906	32.458538
452.254822	1183.270874	15321.082031	5643.291504	31.546753
452.612274	1142.311401	15389.347656	5914.078613	33.493050
452.969635	1130.933838	15209.581055	5843.537598	33.473412
453.326965	1206.026001	15088.978516	5663.771484	32.109493
453.684326	1149.138062	14970.651367	5766.169922	33.404675
454.041534	1121.831787	14804.538086	5559.097168	32.429737
454.398773	1146.862427	14479.138672	5561.373047	33.111454
454.755951	1217.403687	14308.474609	5279.208496	31.027290
455.113098	1217.403687	13484.736328	5276.932617	33.092186
455.470215	1217.403687	13907.983398	5235.973145	31.665766
455.827240	1224.230225	13741.870117	5315.616699	32.684967
456.184265	1233.332275	13871.575195	5206.391602	31.436800
456.541260	1190.097412	13600.788086	5361.126953	33.608356
456.898193	1133.209351	13475.633789	5185.912109	32.835548
457.255096	1246.985352	13771.452148	5304.238770	32.394619
457.611969	1119.556274	13582.583984	5222.320313	32.919483
457.968781	1180.995239	14010.381836	5138.125977	30.844271
458.325531	1108.178589	14055.891602	5263.279785	32.091389
458.682312	1208.301514	14720.343750	5436.219238	31.290001
459.039001	1158.240112	15466.714844	5645.566895	31.361320
459.395630	1133.209351	16106.136719	5873.119141	31.656532
459.752289	1212.852539	17375.876953	6137.079590	30.466000
460.108856	1192.372925	18224.646484	6517.091797	31.262526
460.465363	1064.943726	19285.039063	6888.001465	31.959534
460.821899	1190.097412	19087.068359	6787.878418	31.277815
461.178345	1210.577026	18875.445313	6822.011230	31.766066
461.534760	1185.546387	18288.361328	6712.786133	32.317719
461.891144	1133.209351	17541.990234	6355.529785	31.826376
462.247467	1194.648438	16738.730469	6123.426270	31.708387
462.603760	1144.586914	16445.189453	6025.579102	31.900654
462.960052	1169.617676	15714.747070	5629.638672	30.663330
463.316254	1208.301514	15223.234375	5572.750488	31.141422
463.672424	1196.923950	14802.262695	5504.484863	31.660814
464.028564	1192.372925	14435.904297	5311.065430	31.099653
464.384644	1144.586914	14570.160156	5292.861328	30.898304
464.740723	1146.862427	14699.864258	5274.657227	30.456684
465.096741	1149.138062	14308.474609	5329.269531	31.765516
465.452698	1192.372925	14203.800781	5258.728516	31.252186
465.808655	1180.995239	14576.986328	5304.238770	30.779684
466.164520	1126.382813	14367.638672	5133.574707	30.262930
466.520355	1201.474976	15050.294922	5286.034668	29.493917
466.876190	1167.342163	15191.376953	5354.300293	29.855587
467.231964	1246.985352	14979.753906	5392.984375	30.190556
467.587677	1160.515625	15769.359375	5579.577148	30.249222
467.943390	1124.107300	16033.319336	5565.923828	29.792429
468.299011	1162.791138	15257.367188	5413.463867	30.158216
468.654633	1146.862427	15202.754883	5324.718750	29.723167
469.010223	1190.097412	15195.927734	5326.994141	29.536961
469.365723	1171.893188	14793.161133	5265.555176	30.053459
469.721191	1221.954712	14895.559570	5272.381836	29.622234
470.076660	1215.128052	14287.995117	5165.432129	30.217581
470.432068	1217.403687	14611.119141	5081.237793	28.848110
470.787445	1244.709839	14272.066406	5124.472656	29.781658
471.142792	1158.240112	14281.168945	4999.319336	29.269983
471.498016	1144.586914	14488.241211	5040.278809	29.195089
471.853271	1224.230225	14627.047852	5022.074219	28.336161
472.208496	1233.332275	14718.068359	5106.268555	28.720890
472.563660	1185.546387	14681.660156	5015.248047	28.376329
472.918762	1199.199463	15248.264648	5072.135742	27.567217
473.273865	1176.444214	15484.918945	5035.727539	26.972010
473.628876	1187.821899	15639.654297	5288.310547	28.373487
473.983917	1228.781250	15748.879883	5217.769043	27.472181
474.338837	1199.199463	15801.216797	5320.167480	28.221907
474.693787	1117.280762	15789.838867	5179.085449	27.683002
475.048645	1190.097412	15250.540039	5103.993164	27.836220
475.403503	1110.454102	16067.452148	5220.044922	27.476040
475.758270	1178.719727	16017.390625	5179.085449	26.959057
476.113037	1215.128052	15985.533203	4969.737305	25.419813
476.467773	1203.750488	16144.820313	5147.228027	26.393541
476.822418	1176.444214	16893.466797	5308.790039	26.292166
477.177063	1183.270874	16745.556641	5267.830566	26.246527
477.531647	1253.812012	17255.273438	5545.444336	26.820253
477.886200	1194.648438	17530.611328	5588.679199	26.897900
478.240723	1208.301514	18006.195313	5638.740723	26.374969
478.595184	1203.750488	18176.859375	5666.046875	26.290388
478.949585	1194.648438	18320.218750	5597.781250	25.710869
479.303986	1212.852539	18559.148438	5745.689941	26.131441
479.658325	1219.679199	18579.626953	5784.374023	26.294405
480.012634	1142.311401	19077.966797	5609.158691	24.904844
480.366913	1155.964600	19571.753906	5900.425293	25.763006
480.721130	1194.648438	19744.693359	5766.169922	24.644260
481.075317	1176.444214	20534.298828	5943.660156	24.626776
481.429474	1165.066650	21512.773438	6314.570313	25.307539
481.783569	1158.240112	22523.105469	6460.203613	24.816273
482.137604	1135.484863	23280.853516	6505.713867	24.249897
482.491669	1226.505737	25210.494141	7115.553711	24.554081
482.845612	1165.066650	27838.720703	7684.433594	24.441223
483.199554	1196.923950	31686.626953	8656.081055	24.464512
483.553436	1196.923950	37134.222656	9627.728516	23.459763
483.907318	1228.781250	43544.367188	10924.775391	22.913528
484.261139	1196.923950	49763.363281	12952.264648	24.204660
484.614899	1149.138062	52830.765625	13798.757813	24.476048
484.968628	1130.933838	52482.613281	13682.707031	24.442770
485.322357	1165.066650	49918.101563	12854.416992	23.976662
485.675964	1183.270874	46502.542969	12042.055664	23.960634
486.029572	1149.138062	42233.667969	10929.326172	23.805038
486.383148	1203.750488	39669.152344	9984.985352	22.828917
486.736694	1153.689087	37177.457031	9523.054688	23.232897
487.090149	1160.515625	37480.101563	9352.390625	22.554979
487.443604	1256.087524	38369.832031	9457.064453	22.096870
487.796997	1194.648438	39826.164063	9907.617188	22.554043
488.150360	1235.607788	41298.425781	10189.782227	22.350338
488.503693	1190.097412	42256.421875	9898.515625	21.205740
488.856964	1185.546387	41266.570313	10055.526367	22.130125
489.210175	1149.138062	39098.000000	9523.054688	22.066319
489.563416	1167.342163	37081.886719	8990.583008	21.782932
489.916565	1174.168701	34701.691406	8280.620117	21.195873
490.269653	1199.199463	32696.958984	7943.843262	21.413090
490.622772	1155.964600	31570.576172	7618.443848	21.247944
490.975769	1240.158813	31952.863281	7645.750000	20.856487
491.328735	1215.128052	32678.753906	7584.311035	20.243004
491.681732	1112.729614	34417.253906	7927.914551	20.463242
492.034607	1167.342163	36895.292969	8462.662109	20.419085
492.387482	1121.831787	37532.441406	8697.040039	20.804947
492.740326	1162.791138	36861.160156	8253.313477	19.862316
493.093079	1169.617676	35413.929688	7973.424805	19.868429
493.445862	1267.465088	32062.087891	7188.370117	19.227076
493.798523	1169.617676	29852.556641	6712.786133	19.325665
494.151215	1192.372925	27474.638672	6335.049805	19.567099
494.503815	1135.484863	25519.964844	5857.190430	19.363569
494.856384	1185.546387	23724.580078	5688.802246	19.979809
495.208923	1117.280762	22796.167969	5336.096191	19.460480
495.561432	1101.352051	22386.574219	5188.187500	19.200342
495.913879	1144.586914	22047.521484	5001.594727	18.451992
496.266296	1137.760376	22159.021484	5008.421387	18.413076
496.618683	1142.311401	22281.900391	4981.115234	18.159309
496.970978	1146.862427	22994.138672	5122.197266	18.196022
497.323273	1165.066650	22620.953125	5012.972168	17.934032
497.675507	1240.158813	22866.708984	5122.197266	17.950336
498.027710	1233.332275	22857.607422	5099.441895	17.878563
498.379852	1135.484863	22743.830078	4981.115234	17.796968
498.731995	1219.679199	22691.494141	4737.634277	16.384060
499.084076	1146.862427	22184.052734	4783.144531	17.285019
499.436096	1158.240112	22045.246094	4680.746094	16.864580
499.788086	1221.954712	21590.140625	4655.715332	16.858452
500.140106	1262.914063	21180.546875	4623.858398	16.874216
500.491943	1199.199463	20666.279297	4423.612305	16.563414
500.843842	1146.862427	20434.177734	4362.173340	16.670601
501.195679	1228.781250	19922.185547	4287.081055	16.360315
501.547455	1178.719727	19580.857422	4305.285156	16.990231
501.899231	1151.413574	19380.611328	4120.968262	16.290102
502.250885	1149.138062	19155.333984	4082.284424	16.289652
502.602600	1178.719727	19191.742188	4198.335938	16.763517
502.954193	1219.679199	19139.406250	4100.488281	16.076189
503.305786	1137.760376	19159.884766	4032.222900	16.060606
503.657379	1183.270874	19027.904297	3968.508301	15.608263
504.008820	1176.444214	19476.181641	3975.334961	15.294703
504.360291	1212.852539	19430.671875	3936.650879	14.951285
504.711700	1246.985352	19756.072266	3977.610352	14.752890
505.063080	1221.954712	19765.173828	3932.099854	14.615289
505.414368	1137.760376	19478.458984	3954.855225	15.359800
505.765656	1199.199463	19423.845703	3877.487549	14.695968
506.116943	1199.199463	19564.927734	3952.579590	14.991946
506.468109	1144.586914	19216.773438	3781.915527	14.593301
506.819305	1160.515625	19278.212891	3709.098877	14.066816
507.170410	1210.577026	19244.080078	3745.507324	14.056781
507.521484	1178.719727	19264.558594	3725.027588	14.079014
507.872559	1149.138062	19182.640625	3690.894775	14.094638
508.223480	1124.107300	19346.478516	3654.486328	13.886112
508.574493	1199.199463	19619.541016	3624.904541	13.168621
508.925385	1076.321289	20045.062500	3672.690674	13.687620
509.276245	1130.933838	20349.982422	3636.282227	13.035756
509.627045	1155.964600	20543.402344	3729.578613	13.274648
509.977814	1187.821899	21037.189453	3834.252441	13.332569
510.328613	1165.066650	20773.228516	3670.415039	12.777069
510.679260	1135.484863	20950.720703	3624.904541	12.563159
511.029999	1185.546387	21098.628906	3674.966064	12.501429
511.380585	1233.332275	21153.242188	3788.742188	12.828421
511.731140	1199.199463	21294.324219	3702.272461	12.456120
512.081726	1171.893188	21660.681641	3702.272461	12.350068
512.432129	1176.444214	21885.958984	3882.038574	13.064498
512.782654	1144.586914	22195.429688	3665.864014	11.977083
513.133057	1158.240112	21965.601563	3788.742188	12.642170
513.483398	1158.240112	22263.695313	3647.659912	11.795149
513.833801	1219.679199	22015.664063	3622.629150	11.554874
514.183960	1133.209351	21537.804688	3581.669678	11.999554
514.534302	1190.097412	21455.884766	3520.230713	11.497868
514.884460	1130.933838	21278.394531	3522.506104	11.870340
515.234619	1217.403687	21201.027344	3490.648926	11.375541
515.584717	1146.862427	21419.476563	3476.995850	11.493996
515.934753	1121.831787	21417.201172	3420.107666	11.324140
516.284851	1115.005249	21556.007813	3447.414063	11.410442
516.634766	1165.066650	21881.408203	3313.158203	10.369068
516.984741	1196.923950	21751.703125	3383.699463	10.638768
517.334595	1153.689087	22805.269531	3431.485352	10.520231
517.684448	1160.515625	23417.384766	3449.689453	10.285247
518.034363	1162.791138	24336.695313	3552.087891	10.310290
518.384094	1246.985352	25142.228516	3663.588379	10.113323
518.733826	1183.270874	26377.837891	3645.384277	9.772398
519.083496	1146.862427	27121.931641	3697.721191	9.820413
519.433167	1146.862427	27256.187500	3579.394287	9.316716
519.782776	1203.750488	27085.523438	3604.425049	9.275541
520.132324	1171.893188	26361.908203	3588.496338	9.593495
520.481873	1180.995239	26214.000000	3533.883789	9.399146
520.831299	1176.444214	25224.148438	3397.352539	9.235427
521.180786	1192.372925	24675.748047	3367.770752	9.263566
521.530151	1208.301514	24534.666016	3285.852051	8.906447
521.879517	1192.372925	24373.103516	3192.555664	8.628644
522.228882	1221.954712	23845.181641	3183.453613	8.670288
522.578064	1153.689087	23581.222656	3124.290039	8.786526
522.927307	1167.342163	23904.345703	3021.891602	8.156525
523.276489	1224.230225	24136.449219	3069.677490	8.054424
523.625610	1146.862427	24090.939453	2967.279053	7.934146
523.974792	1208.301514	24700.777344	3185.729004	8.417280
524.323792	1196.923950	24976.117188	3078.779541	7.913875
524.672852	1221.954712	25390.261719	3147.045166	7.965351
525.021790	1206.026001	26350.531250	3056.024414	7.357466
525.370728	1149.138062	27674.884766	3251.719238	7.926567
525.719604	1149.138062	29035.644531	3317.709229	7.776418
526.068420	1201.474976	30826.480469	3363.219727	7.297027
526.417297	1151.413574	31848.189453	3520.230713	7.716827
526.765991	1105.903076	33004.152344	3654.486328	7.989727
527.114746	1185.546387	33698.187500	3513.404053	7.159854
527.463379	1155.964600	35099.910156	3438.312012	6.723872
527.812012	1183.270874	37138.773438	3613.527100	6.759066
528.160706	1112.729614	39696.460938	3825.150391	7.029960
528.509155	1158.240112	44566.074219	3986.712402	6.516040
528.857727	1171.893188	49729.230469	4239.295410	6.317073
529.206177	1219.679199	52525.847656	4694.399414	6.772520
529.554565	1124.107300	53058.320313	4537.388672	6.572317
529.902893	1176.444214	51515.515625	4491.877930	6.586204
530.251221	1265.189575	48841.777344	4293.907715	6.365985
530.599548	1226.505737	45178.191406	4043.600586	6.409526
530.947876	1190.097412	41475.917969	3752.333740	6.360144
531.296021	1176.444214	38005.750000	3572.567627	6.506024
531.644165	1155.964600	36187.605469	3363.219727	6.300747
531.992249	1219.679199	34369.464844	3269.923340	6.184789
532.340454	1194.648438	32985.949219	3096.983887	5.983824
532.688354	1206.026001	33568.484375	3117.463379	5.906342
533.036438	1176.444214	33825.617188	3076.504150	5.819626
533.384338	1151.413574	36239.945313	3219.861816	5.894941
533.732239	1183.270874	38246.953125	3178.902588	5.384332
534.080139	1144.586914	39032.007813	3354.117676	5.831832
534.427917	1217.403687	37928.378906	3140.218750	5.237711
534.775757	1180.995239	36888.468750	3124.290039	5.442264
535.123474	1162.791138	35409.378906	3083.330566	5.607974
535.471191	1199.199463	33074.695313	2844.401123	5.161336
535.818848	1203.750488	31789.025391	2871.707275	5.453464
536.166382	1167.342163	30869.714844	2789.788574	5.462346
536.513977	1165.066650	30935.705078	2653.257324	4.998854
536.861511	1183.270874	30949.359375	2639.604248	4.892592
537.208984	1155.964600	31149.603516	2689.665527	5.113420
537.556396	1171.893188	31088.166016	2723.798340	5.187495
537.903809	1126.382813	30225.742188	2519.001465	4.785737
538.251160	1128.658325	29634.107422	2566.787354	5.045102
538.598389	1167.342163	28439.458984	2589.542725	5.214852
538.945740	1162.791138	27547.455078	2368.817139	4.570936
539.292969	1144.586914	27131.035156	2298.276123	4.439580
539.640137	1099.076538	26673.654297	2293.724854	4.671234
539.987244	1153.689087	26962.646484	2375.643799	4.734615
540.334351	1203.750488	28018.488281	2500.797363	4.837067
540.681458	1180.995239	29351.943359	2468.940186	4.571891
541.028442	1140.035889	31964.240234	2512.175049	4.451499
541.375366	1212.852539	34974.753906	2632.777588	4.205702
541.722290	1194.648438	37782.746094	2746.553711	4.241558
542.069153	1190.097412	39619.093750	2785.237549	4.150877
542.416016	1137.760376	39762.449219	2723.798340	4.106280
542.762756	1162.791138	38975.121094	2823.921387	4.393092
543.109558	1130.933838	37664.421875	2730.625000	4.378698
543.456299	1228.781250	36057.902344	2646.430664	4.070299
543.802917	1151.413574	34806.367188	2587.267090	4.266396
544.149536	1178.719727	32890.378906	2573.614014	4.398679
544.496094	1130.933838	30635.335938	2366.541748	4.187876
544.842651	1174.168701	29094.808594	2236.836914	3.806031
545.189148	1233.332275	27988.906250	2179.948975	3.538017
545.535583	1258.363037	26894.380859	2168.571289	3.550506
545.882019	1208.301514	26364.183594	2136.714111	3.690638
546.228333	1176.444214	25861.292969	2068.448486	3.613570
546.574707	1135.484863	25831.712891	2109.407715	3.943610
546.920898	1155.964600	25783.925781	2116.234375	3.899104
547.267212	1146.862427	25929.558594	2102.581299	3.856396
547.613342	1153.689087	25906.804688	2100.305664	3.824232
547.959473	1237.883301	25501.761719	2013.835938	3.197974
548.305664	1240.158813	24436.818359	2018.386963	3.354915
548.651611	1194.648438	23826.978516	2009.284912	3.599437
548.997742	1180.995239	22616.400391	1925.090576	3.471338
549.343689	1226.505737	22204.531250	1911.437500	3.264996
549.689575	1151.413574	21055.394531	1852.273926	3.521207
550.035522	1183.270874	20070.093750	1875.029175	3.662651
550.381287	1171.893188	19715.111328	1836.345337	3.583262
550.727173	1206.026001	19341.927734	1784.008301	3.186951
551.072876	1185.546387	19137.130859	1722.569214	2.991507
551.418640	1203.750488	18893.648438	1806.763550	3.408799
551.764282	1183.270874	18672.923828	1774.906250	3.382774
552.109863	1178.719727	18814.005859	1772.630737	3.367743
552.455505	1078.596802	18759.392578	1802.212524	4.092665
552.801025	1158.240112	19321.447266	1770.355225	3.370083
553.146545	1226.505737	19107.548828	1804.488037	3.232375
553.491943	1210.577026	19692.357422	1813.590088	3.262743
553.837341	1199.199463	19826.613281	1786.283813	3.151722
554.182800	1201.474976	19148.507813	1765.804199	3.144415
554.528015	1187.821899	19032.455078	1763.528564	3.226218
554.873352	1144.586914	18600.107422	1592.864502	2.568114
555.218628	1142.311401	18381.656250	1683.885376	3.141500
555.563721	1128.658325	18236.023438	1704.365112	3.365257
555.908875	1174.168701	18024.400391	1670.232300	2.943957
556.254028	1176.444214	17655.765625	1656.579102	2.913560
556.599121	1176.444214	17594.326172	1633.823975	2.785863
556.944031	1144.586914	17175.630859	1613.344238	2.924060
557.289063	1183.270874	17212.039063	1606.517700	2.640545
557.633972	1185.546387	17016.343750	1677.058838	3.104787
557.978882	1074.045776	16970.833984	1592.864502	3.263670
558.323792	1130.933838	16863.884766	1699.814087	3.615852
558.668518	1169.617676	16645.435547	1579.211426	2.646669
559.013306	1231.056763	16727.353516	1592.864502	2.334801
559.358032	1203.750488	16852.507813	1588.313477	2.457467
559.702637	1178.719727	16777.414063	1699.814087	3.340628
560.047363	1249.260864	16556.689453	1617.895264	2.408206
560.391846	1267.465088	16590.822266	1702.089600	2.836353
560.736450	1180.995239	16474.771484	1629.272949	2.931112
561.080933	1221.954712	16825.201172	1595.140137	2.391716
561.425354	1221.954712	16806.996094	1633.823975	2.642722
561.769775	1210.577026	16863.884766	1542.803101	2.122402
562.114136	1176.444214	17011.792969	1633.823975	2.888347
562.458496	1174.168701	16895.742188	1692.987427	3.300043
562.802673	1187.821899	16777.414063	1588.313477	2.568968
563.146912	1133.209351	16857.058594	1649.752563	3.285094
563.491150	1155.964600	16595.373047	1567.833862	2.667649
563.835266	1174.168701	16527.107422	1581.486938	2.653031
564.179443	1196.923950	16784.242188	1579.211426	2.452554
564.523438	1146.862427	16602.199219	1579.211426	2.797409
564.867493	1126.382813	16836.578125	1572.384888	2.838934
565.211426	1135.484863	16968.558594	1590.588989	2.874389
565.555359	1158.240112	17159.703125	1620.170776	2.886803
565.899231	1144.586914	17673.970703	1597.415649	2.739538
566.243042	1144.586914	18040.328125	1681.609863	3.178451
566.586914	1201.474976	18263.330078	1588.313477	2.267271
566.930603	1169.617676	18775.322266	1665.681274	2.817630
567.274292	1142.311401	18980.119141	1663.405762	2.921291
567.617981	1162.791138	18841.312500	1688.436401	2.973355
567.961609	1187.821899	18547.769531	1647.477051	2.647791
568.305237	1124.107300	18140.451172	1551.905151	2.514041
568.648682	1146.862427	17892.419922	1547.354126	2.391630
568.992188	1169.617676	17758.164063	1599.691162	2.592593
569.335632	1167.342163	17318.988281	1567.833862	2.479572
569.679016	1174.168701	17325.814453	1642.926025	2.902226
570.022461	1169.617676	17166.529297	1551.905151	2.389758
570.365662	1146.862427	17633.009766	1606.517700	2.788131
570.708984	1190.097412	17466.898438	1565.558350	2.306724
571.052185	1101.352051	17587.500000	1606.517700	3.064182
571.395386	1196.923950	17539.714844	1601.966675	2.478418
571.738525	1165.066650	18210.992188	1608.793213	2.603124
572.081604	1187.821899	18606.933594	1624.721802	2.508164
572.424683	1210.577026	18732.087891	1592.864502	2.181818
572.767578	1208.301514	19298.691406	1652.028076	2.452830
573.110596	1185.546387	18989.220703	1597.415649	2.313395
573.453552	1221.954712	19037.007813	1520.047852	1.673266
573.796387	1137.760376	18784.423828	1617.895264	2.720825
574.139282	1144.586914	18402.136719	1538.252075	2.281118
574.481995	1224.230225	18204.166016	1476.812988	1.487537
574.824768	1165.066650	18240.574219	1558.731689	2.305437
575.167480	1119.556274	18261.054688	1517.772339	2.323111
575.510132	1199.199463	17746.787109	1538.252075	2.048955
575.852722	1146.862427	18113.146484	1510.945801	2.145923
576.195251	1210.577026	17883.318359	1572.384888	2.170056
576.537842	1165.066650	17617.082031	1524.598877	2.185338
576.880188	1171.893188	17387.253906	1492.741699	1.978670
577.222717	1201.474976	17187.007813	1522.323364	2.007117
577.565063	1192.372925	16606.750000	1565.558350	2.421022
577.907410	1158.240112	16137.993164	1572.384888	2.764697
578.249756	1121.831787	15962.778320	1535.976563	2.790555
578.591919	1151.413574	15769.359375	1506.394775	2.428393
578.934204	1224.230225	15362.041016	1435.853638	1.496861
579.276306	1174.168701	15491.746094	1474.537476	2.097902
579.618469	1137.760376	14895.559570	1472.261963	2.431360
579.960571	1151.413574	14904.661133	1415.373901	1.919258
580.302551	1165.066650	14340.332031	1501.843750	2.556131
580.644531	1301.597900	14276.617188	1515.496826	1.648544
580.986511	1187.821899	14178.770508	1472.261963	2.189525
581.328369	1149.138062	14051.340820	1535.976563	2.998236
581.670227	1176.444214	13921.636719	1435.853638	2.035351
582.012024	1112.729614	13880.676758	1463.159912	2.744610
582.353821	1215.128052	13882.952148	1431.302612	1.706485
582.695496	1151.413574	13616.716797	1435.853638	2.281854
583.037231	1190.097412	13646.297852	1422.200562	1.863354
583.378845	1146.862427	13744.145508	1492.741699	2.745666
583.720398	1137.760376	13578.032227	1410.822876	2.194988
584.062012	1158.240112	13471.083008	1415.373901	2.088338
584.403442	1108.178589	13373.235352	1456.333252	2.838590
584.744934	1146.862427	13327.725586	1426.751587	2.297778
585.086365	1133.209351	13593.960938	1435.853638	2.428780
585.427734	1158.240112	13345.929688	1442.680176	2.333831
585.768982	1203.750488	13375.511719	1476.812988	2.243410
586.110291	1165.066650	13227.602539	1451.782227	2.376909
586.451599	1192.372925	13471.083008	1401.720825	1.704967
586.792725	1183.270874	13225.327148	1413.098389	1.908540
587.133850	1176.444214	13302.694336	1463.159912	2.364422
587.474915	1178.719727	13380.062500	1495.017212	2.592317
587.815979	1192.372925	13304.969727	1413.098389	1.822280
588.157043	1235.607788	13350.480469	1472.261963	1.953418
588.497925	1133.209351	13361.858398	1447.231201	2.567919
588.838867	1199.199463	13393.715820	1415.373901	1.772718
589.179749	1199.199463	13286.765625	1444.955688	2.033132
589.520569	1219.679199	13578.032227	1490.466064	2.191124
589.861450	1212.852539	13985.350586	1492.741699	2.191342
590.202087	1208.301514	13871.575195	1322.077637	0.898473
590.542847	1185.546387	13985.350586	1535.976563	2.737777
590.883484	1215.128052	13958.044922	1392.618774	1.392858
591.224121	1242.434326	13755.523438	1424.476074	1.454811
591.564636	1149.138062	13980.799805	1410.822876	2.039368
591.905151	1187.821899	13509.766602	1474.537476	2.326869
592.245667	1251.536499	13425.572266	1401.720825	1.233644
592.585999	1180.995239	13553.001953	1515.496826	2.703697
592.926453	1235.607788	13641.747070	1472.261963	1.907557
593.266724	1160.515625	13482.460938	1438.129150	2.253001
593.607056	1112.729614	13357.306641	1449.506714	2.750418
593.947388	1155.964600	13500.665039	1465.435425	2.506912
594.287476	1196.923950	13700.911133	1451.782227	2.038216
594.627686	1187.821899	13675.879883	1488.190552	2.405247
594.967773	1178.719727	13933.013672	1463.159912	2.230152
595.307861	1096.801025	13864.748047	1408.547363	2.441633
595.647888	1194.648438	14067.269531	1419.924927	1.750044
595.987854	1201.474976	14151.463867	1542.803101	2.635741
596.327820	1196.923950	14481.414063	1504.119263	2.312436
596.667725	1199.199463	14840.946289	1419.924927	1.618015
597.007568	1196.923950	15391.623047	1424.476074	1.603078
597.347351	1155.964600	15600.970703	1581.486938	2.945809
597.687073	1146.862427	16051.523438	1558.731689	2.763359
598.026794	1178.719727	16106.136719	1522.323364	2.301829
598.366455	1190.097412	15648.756836	1497.292725	2.124646
598.706116	1162.791138	15129.937500	1510.945801	2.492669
599.045654	1215.128052	14825.017578	1481.364014	1.956195
599.385193	1196.923950	14226.555664	1442.680176	1.886133
599.724731	1146.862427	13632.645508	1440.404663	2.351012
600.064087	1151.413574	13466.532227	1456.333252	2.475978
600.403564	1149.138062	13061.489258	1458.608887	2.597899
600.742920	1206.026001	13097.897461	1476.812988	2.277076
601.082153	1130.933838	12827.110352	1385.792114	2.178988
601.421387	1274.291626	12756.569336	1483.639526	1.823226
601.760620	1192.372925	12742.916016	1392.618774	1.733649
602.099854	1212.852539	12854.416992	1376.690063	1.407350
602.438843	1201.474976	12699.681641	1447.231201	2.137344
602.778015	1169.617676	13177.541016	1390.343262	1.838166
603.117065	1187.821899	13077.417969	1422.200562	1.971292
603.456055	1244.709839	13725.941406	1415.373901	1.367366
603.794983	1099.076538	13860.197266	1488.190552	3.049215
604.133850	1178.719727	14740.824219	1472.261963	2.164430
604.472778	1126.382813	15220.958984	1442.680176	2.244107
604.811584	1119.556274	15437.132813	1460.884399	2.383980
605.150330	1153.689087	15899.063477	1476.812988	2.191358
605.489075	1165.066650	16320.035156	1497.292725	2.192192
605.827698	1162.791138	15924.094727	1538.252075	2.543549
606.166382	1215.128052	15960.502930	1586.037964	2.515432
606.504883	1142.311401	15205.030273	1517.772339	2.669903
606.843445	1103.627563	14829.569336	1524.598877	3.066976
607.181946	1151.413574	14465.485352	1481.364014	2.478208
607.520386	1171.893188	13930.738281	1481.364014	2.425539
607.858826	1133.209351	13170.714844	1429.027100	2.457467
608.197083	1187.821899	13598.512695	1449.506714	2.108544
608.535461	1178.719727	13261.735352	1399.445313	1.826743
608.873718	1117.280762	13211.673828	1442.680176	2.690498
609.211914	1142.311401	13343.654297	1447.231201	2.499068
609.550171	1185.546387	13832.890625	1483.639526	2.356962
609.888245	1144.586914	14456.383789	1413.098389	2.017094
610.226318	1210.577026	14447.281250	1451.782227	1.822245
610.564392	1199.199463	14360.811523	1442.680176	1.849931
610.902344	1235.607788	14488.241211	1497.292725	1.974588
611.240295	1160.515625	14324.403320	1401.720825	1.832325
611.578247	1160.515625	14001.279297	1442.680176	2.197412
611.916138	1160.515625	13548.451172	1465.435425	2.461426
612.253845	1203.750488	13188.918945	1463.159912	2.164420
612.591675	1158.240112	12831.662109	1324.353149	1.423002
612.929382	1151.413574	12629.140625	1401.720825	2.180809
613.267090	1155.964600	12212.719727	1351.659302	1.769911
613.604736	1180.995239	11991.994141	1440.404663	2.399495
613.942261	1151.413574	11910.076172	1390.343262	2.220812
614.279785	1203.750488	11807.677734	1495.017212	2.746782
614.617310	1233.332275	11630.186523	1358.485962	1.203765
614.954712	1103.627563	11666.594727	1317.526489	2.024989
615.292175	1128.658325	11495.930664	1326.628662	1.909570
615.629517	1121.831787	11457.247070	1381.241089	2.509907
615.966797	1194.648438	11454.971680	1413.098389	2.129075
616.304138	1146.862427	11236.521484	1358.485962	2.097430
616.641296	1187.821899	11436.767578	1408.547363	2.153641
616.978516	1149.138062	11231.970703	1378.965576	2.279394
617.315552	1199.199463	11263.828125	1440.404663	2.396563
617.652771	1140.035889	11277.481445	1390.343262	2.469137
617.989685	1174.168701	11607.431641	1349.383789	1.679389
618.326721	1199.199463	11461.797852	1467.710938	2.616408
618.663696	1180.995239	11354.848633	1383.516602	1.990606
619.000549	1221.954712	11307.062500	1454.057739	2.301443
619.337463	1153.689087	11484.553711	1410.822876	2.488986
619.674194	1196.923950	11165.980469	1333.455200	1.369550
620.010986	1210.577026	11352.573242	1374.414551	1.615437
620.347778	1192.372925	11284.307617	1419.924927	2.254791
620.684387	1153.689087	11245.624023	1429.027100	2.728298
621.020996	1219.679199	11097.714844	1383.516602	1.658603
621.357605	1165.066650	11191.011719	1426.751587	2.610077
621.694214	1203.750488	10879.264648	1333.455200	1.340546
622.030579	1215.128052	10890.642578	1388.067749	1.787395
622.367065	1210.577026	10895.193359	1378.965576	1.738722
622.703430	1185.546387	10710.875977	1415.373901	2.412804
623.039795	1196.923950	10808.723633	1369.863525	1.799242
623.376160	1153.689087	10804.172852	1358.485962	2.122141
623.712402	1221.954712	10697.223633	1399.445313	1.873199
624.048645	1155.964600	10888.367188	1456.333252	3.086275
624.384766	1137.760376	10692.671875	1347.108276	2.190998
624.720886	1187.821899	10779.141602	1456.333252	2.799525
625.057007	1176.444214	10902.020508	1417.649414	2.480112
625.392944	1219.679199	10899.745117	1372.139038	1.574988
625.729004	1203.750488	10913.397461	1417.649414	2.202953
626.064941	1158.240112	11034.000000	1403.996338	2.488479
626.400818	1201.474976	11286.583008	1406.271851	2.030686
626.736633	1128.658325	11548.268555	1415.373901	2.751692
627.072449	1190.097412	11712.105469	1465.435425	2.616782
627.408264	1142.311401	11973.790039	1435.853638	2.710085
627.743896	1262.914063	11937.381836	1474.537476	1.982520
628.079590	1174.168701	12060.259766	1410.822876	2.173913
628.415161	1176.444214	11750.789063	1383.516602	1.958253
628.750793	1194.648438	11520.961914	1433.578125	2.313795
629.086365	1224.230225	11414.012695	1413.098389	1.853505
629.421753	1153.689087	11188.735352	1483.639526	3.287981
629.757263	1169.617676	11225.144531	1376.690063	2.059289
630.092651	1162.791138	10776.866211	1344.832764	1.893491
630.427917	1151.413574	10863.335938	1385.792114	2.413307
630.763184	1135.484863	10635.784180	1406.271851	2.850300
631.098511	1146.862427	10501.528320	1324.353149	1.897350
631.433716	1169.617676	10499.252930	1388.067749	2.341464
631.768799	1203.750488	10560.692383	1388.067749	1.969845
632.103943	1174.168701	10116.965820	1335.730713	1.806616
632.438965	1162.791138	10025.944336	1399.445313	2.670090
632.773987	1190.097412	9930.373047	1363.036987	1.978651
633.109070	1142.311401	10005.464844	1367.588013	2.541721
633.443848	1185.546387	9725.576172	1447.231201	3.064214
633.778870	1133.209351	9971.332031	1360.761475	2.574666
634.113708	1228.781250	9900.791016	1406.271851	2.046707
634.448425	1115.005249	10107.863281	1381.241089	2.960525
634.783264	1155.964600	10151.098633	1340.281738	2.049076
635.117859	1180.995239	10157.924805	1349.383789	1.875792
635.452576	1196.923950	10041.873047	1340.281738	1.620787
635.787170	1151.413574	9957.678711	1367.588013	2.454780
636.121704	1190.097412	9773.362305	1347.108276	1.829267
636.456177	1224.230225	9702.820313	1365.312500	1.663983
636.790588	1146.862427	9384.248047	1383.516602	2.872928
637.125122	1124.107300	9513.952148	1410.822876	3.417412
637.459412	1160.515625	9445.686523	1415.373901	3.076077
637.793762	1242.434326	9263.645508	1394.894287	1.900710
638.128052	1124.107300	9147.593750	1319.802124	2.439025
638.462280	1201.474976	9063.399414	1342.557251	1.794501
638.796509	1155.964600	9215.859375	1353.934937	2.456240
639.130615	1108.178589	8983.755859	1356.210449	3.149380
639.464722	1155.964600	8954.174805	1390.343262	3.005544
639.798767	1167.342163	8874.531250	1413.098389	3.188662
640.132751	1192.372925	9081.603516	1374.414551	2.307470
640.466736	1201.474976	8662.907227	1358.485962	2.104301
640.800598	1249.260864	8558.233398	1285.669312	0.498134
641.134521	1117.280762	8637.876953	1317.526489	2.662631
641.468262	1121.831787	8446.733398	1367.588013	3.355079
641.802063	1171.893188	8408.049805	1285.669312	1.572328
642.135803	1208.301514	8396.671875	1333.455200	1.741058
642.469421	1187.821899	8342.059570	1413.098389	3.148854
642.803101	1155.964600	8294.273438	1324.353149	2.358942
643.136658	1153.689087	8200.976563	1349.383789	2.776880
643.470215	1169.617676	8291.998047	1349.383789	2.523961
643.803711	1224.230225	8294.273438	1310.699951	1.223044
644.137085	1110.454102	8200.976563	1322.077637	2.984597
644.470581	1133.209351	8223.732422	1401.720825	3.786906
644.803833	1226.505737	8282.895508	1369.863525	2.031602
645.137207	1169.617676	8189.599121	1310.699951	2.009724
645.470459	1178.719727	8134.986816	1438.129150	3.729147
645.803589	1146.862427	8223.732422	1328.904175	2.572348
646.136780	1167.342163	8134.986816	1392.618774	3.233182
646.469849	1201.474976	8401.222656	1367.588013	2.307206
646.802979	1215.128052	8109.956055	1338.006226	1.782179
647.135986	1251.536499	8330.681641	1338.006226	1.221471
647.468994	1185.546387	8278.344727	1376.690063	2.694898
647.801941	1126.382813	8319.303711	1338.006226	2.942107
648.134766	1126.382813	8239.661133	1347.108276	3.103006
648.467651	1196.923950	8169.119629	1388.067749	2.741515
648.800354	1162.791138	8355.711914	1317.526489	2.151217
649.133179	1126.382813	8205.528320	1374.414551	3.503696
649.465881	1201.474976	8139.538086	1328.904175	1.836668
649.798462	1187.821899	8367.089844	1324.353149	1.901743
650.131104	1201.474976	8264.691406	1365.312500	2.319588
650.463623	1190.097412	8150.915527	1331.179688	2.026806
650.796143	1153.689087	8171.395020	1360.761475	2.950713
651.128662	1158.240112	8235.109375	1340.281738	2.572347
651.461060	1133.209351	8232.833984	1319.802124	2.628206
651.793396	1183.270874	8348.885742	1401.720825	3.048586
652.125732	1194.648438	8237.385742	1262.914063	0.969305
652.458008	1153.689087	8287.446289	1317.526489	2.296649
652.790222	1128.658325	8323.855469	1367.588013	3.320683
653.122437	1201.474976	8087.201172	1356.210449	2.247192
653.454529	1190.097412	8066.721191	1360.761475	2.481800
653.786621	1165.066650	7955.220703	1297.046875	1.943700
654.118713	1183.270874	8066.721191	1349.383789	2.413222
654.450623	1185.546387	8071.272461	1372.139038	2.709847
654.782654	1153.689087	7996.180176	1301.597900	2.161622
655.114502	1287.944824	8057.619141	1394.894287	1.579832
655.446350	1096.801025	7836.893555	1265.189575	2.498312
655.778198	1192.372925	7941.567383	1333.455200	2.090357
656.109863	1196.923950	7984.802734	1351.659302	2.279583
656.441650	1126.382813	7839.168945	1351.659302	3.355931
656.773254	1171.893188	7845.995605	1342.557251	2.557109
657.104919	1190.097412	7784.556641	1287.944824	1.483782
657.436462	1171.893188	7845.995605	1312.975464	2.113876
657.767944	1212.852539	7955.220703	1315.250977	1.518731
658.099548	1228.781250	8055.343750	1292.495850	0.933334
658.430908	1187.821899	8048.517090	1347.108276	2.321723
658.762268	1119.556274	8219.180664	1331.179688	2.980769
659.093628	1101.352051	8489.967773	1408.547363	4.157684
659.424927	1174.168701	8858.602539	1342.557251	2.191294
659.756226	1133.209351	9029.266602	1408.547363	3.487032
660.087341	1219.679199	9270.471680	1410.822876	2.374222
660.418518	1192.372925	9231.788086	1333.455200	1.754882
660.749573	1167.342163	9190.828125	1413.098389	3.062961
661.080627	1128.658325	9040.644531	1315.250977	2.358354
661.411621	1158.240112	8940.521484	1403.996338	3.157894
661.742554	1149.138062	8838.123047	1463.159912	4.084048
662.073547	1169.617676	8378.467773	1331.179688	2.241162
662.404297	1153.689087	8514.999023	1310.699951	2.132920
662.735229	1199.199463	8166.844238	1335.730713	1.959504
663.065979	1199.199463	7950.669922	1285.669312	1.280756
663.396667	1162.791138	7882.404297	1358.485962	2.912293
663.727417	1167.342163	7682.158203	1363.036987	3.003843
664.057922	1221.954712	7761.801270	1401.720825	2.748782
664.388611	1194.648438	7452.330566	1292.495850	1.563637
664.719116	1190.097412	7588.861816	1315.250977	1.955902
665.049622	1208.301514	7459.157227	1297.046875	1.419731
665.380005	1210.577026	7386.340332	1265.189575	0.884304
665.710388	1190.097412	7393.166992	1326.628662	2.201027
666.040771	1165.066650	7156.512695	1297.046875	2.202811
666.371033	1199.199463	7386.340332	1297.046875	1.581464
666.701294	1235.607788	7224.778320	1317.526489	1.367780
667.031555	1105.903076	7176.992676	1340.281738	3.860570
667.361633	1165.066650	7340.830078	1351.659302	3.021370
667.691772	1174.168701	7249.809082	1328.904175	2.546817
668.021790	1244.709839	7206.574219	1403.996338	2.671757
668.351807	1160.515625	7147.410645	1358.485962	3.306728
668.681763	1174.168701	7158.788574	1374.414551	3.346008
669.011719	1117.280762	7147.410645	1294.771362	2.943396
669.341614	1133.209351	7258.911133	1342.557251	3.417533
669.671387	1153.689087	7122.379883	1356.210449	3.393062
670.001221	1199.199463	7304.421875	1342.557251	2.348117
670.330933	1196.923950	7258.911133	1338.006226	2.327327
670.660583	1208.301514	7197.472168	1303.873413	1.595745
670.990173	1242.434326	7447.779785	1401.720825	2.566924
671.319763	1201.474976	7035.910156	1347.108276	2.496099
671.649292	1208.301514	7090.522949	1278.842651	1.199226
671.978821	1133.209351	7051.838867	1315.250977	3.075740
672.308289	1187.821899	7040.461426	1326.628662	2.371695
672.637695	1201.474976	7076.869629	1285.669312	1.432999
672.966980	1096.801025	6801.531738	1303.873413	3.629837
673.296326	1126.382813	6840.215332	1308.424438	3.185981
673.625610	1224.230225	6662.725098	1265.189575	0.753138
673.954773	1178.719727	6819.735840	1219.679199	0.726101
674.283936	1119.556274	6812.909180	1258.363037	2.438050
674.613037	1180.995239	6771.949707	1365.312500	3.296705
674.942078	1196.923950	6751.470215	1283.393677	1.556738
675.271118	1155.964600	6635.418457	1287.944824	2.408638
675.600098	1251.536499	6785.603027	1324.353149	1.315789
675.928955	1203.750488	6435.172852	1278.842651	1.435406
676.257813	1174.168701	6430.621582	1301.597900	2.424243
676.586670	1158.240112	6703.684082	1278.842651	2.174804
676.915466	1215.128052	6610.387695	1283.393677	1.265289
677.244141	1233.332275	6692.306641	1381.241089	2.709461
677.572876	1185.546387	6551.224609	1312.975464	2.374892
677.901489	1208.301514	6564.877441	1290.220337	1.529313
678.230042	1215.128052	6476.132324	1312.975464	1.859862
678.558594	1149.138062	6669.551270	1342.557251	3.503709
678.887085	1165.066650	6580.806152	1401.720825	4.369748
679.215515	1117.280762	6740.092773	1338.006226	3.925535
679.543945	1187.821899	6826.562500	1303.873413	2.058110
679.872253	1221.954712	6963.093750	1317.526489	1.664683
680.200562	1196.923950	7117.829102	1333.455200	2.305918
680.528809	1165.066650	7038.186035	1317.526489	2.595892
680.856995	1192.372925	7208.850098	1347.108276	2.571860
681.185120	1140.035889	7297.595215	1392.618774	4.101996
681.513306	1183.270874	7261.187012	1324.353149	2.321228
681.841309	1115.005249	7329.452637	1333.455200	3.515195
682.169373	1190.097412	7302.146484	1338.006226	2.419955
682.497314	1171.893188	7288.493164	1228.781250	0.930060
682.825134	1155.964600	7190.645508	1265.189575	1.809955
683.153076	1201.474976	7149.686523	1306.148926	1.759755
683.480896	1180.995239	6938.062988	1310.699951	2.252965
683.808655	1162.791138	6906.205566	1290.220337	2.218701
684.136414	1208.301514	6885.726074	1265.189575	1.002005
684.464050	1224.230225	6639.969727	1340.281738	2.142856
684.791626	1155.964600	6507.989258	1324.353149	3.146259
685.119263	1201.474976	6667.275879	1347.108276	2.664446
685.446838	1146.862427	6453.376953	1390.343262	4.588338
685.774292	1119.556274	6339.601074	1365.312500	4.707933
686.101685	1137.760376	6414.693359	1242.434326	1.983613
686.429077	1094.525513	6241.753418	1269.740601	3.404067
686.756348	1137.760376	6216.722656	1312.975464	3.449821
687.083679	1180.995239	6259.957520	1299.322388	2.329751
687.410950	1119.556274	6423.795410	1415.373901	5.577004
687.738159	1180.995239	6394.213379	1253.812012	1.396772
688.065308	1233.332275	6321.396973	1256.087524	0.447228
688.392395	1246.985352	6403.315430	1265.189575	0.353046
688.719421	1183.270874	6441.999512	1360.761475	3.375162
689.046448	1221.954712	6414.693359	1262.914063	0.788781
689.373413	1162.791138	6280.437500	1292.495850	2.534460
689.700317	1208.301514	6364.631836	1269.740601	1.191527
690.027100	1196.923950	6259.957520	1267.465088	1.393258
690.353943	1203.750488	6189.416504	1306.148926	2.053857
690.680725	1142.311401	6064.262695	1374.414551	4.715673
691.007446	1167.342163	6137.079590	1274.291626	2.152014
691.334106	1130.933838	5948.211426	1303.873413	3.589986
691.660645	1062.668213	5927.731445	1244.709839	3.741814
691.987244	1151.413574	5825.333008	1312.975464	3.456668
692.313721	1199.199463	5677.424316	1319.802124	2.693091
692.640259	1087.698975	5638.740723	1242.434326	3.399998
692.966675	1144.586914	5561.373047	1262.914063	2.679033
693.293030	1201.474976	5552.270996	1333.455200	3.033473
693.619324	1206.026001	5461.250000	1331.179688	2.941177
693.945618	1169.617676	5675.148926	1322.077637	3.383840
694.271851	1171.893188	5452.147949	1333.455200	3.774589
694.598083	1212.852539	5436.219238	1303.873413	2.155173
694.924194	1174.168701	5381.606934	1322.077637	3.515415
695.250244	1183.270874	5361.126953	1310.699951	3.050107
695.576294	1190.097412	5424.841797	1269.740601	1.880708
695.902283	1146.862427	5565.923828	1226.505737	1.802268
696.228210	1185.546387	5484.005371	1244.709839	1.376387
696.554138	1183.270874	5504.484863	1265.189575	1.895734
696.879944	1178.719727	5611.434082	1262.914063	1.899386
697.205750	1196.923950	5458.974609	1317.526489	2.829683
697.531433	1151.413574	5618.260742	1240.158813	1.986753
697.857178	1190.097412	5738.863281	1315.250977	2.751374
698.182739	1158.240112	5950.486816	1269.740601	2.326685
698.508423	1206.026001	6155.283691	1335.730713	2.620690
698.833984	1185.546387	6469.305664	1199.199463	0.258397
699.159485	1101.352051	6678.653320	1260.638550	2.855978
699.484924	1153.689087	6740.092773	1258.363037	1.873727
699.810303	1142.311401	6965.369141	1367.588013	3.868700
700.135681	1140.035889	7029.083984	1399.445313	4.404947
700.460999	1219.679199	6851.593262	1262.914063	0.767676
700.786255	1206.026001	6592.183594	1317.526489	2.070130
701.111450	1167.342163	6376.009277	1324.353149	3.014418
701.436646	1144.586914	6244.029297	1376.690063	4.551540
701.761719	1192.372925	5998.272949	1308.424438	2.414772
702.086792	1165.066650	6016.477051	1306.148926	2.908067
702.411865	1155.964600	5807.128906	1297.046875	3.033268
702.736816	1215.128052	5668.322266	1269.740601	1.226368
703.061646	1162.791138	5547.719727	1360.761475	4.514791
703.386536	1194.648438	5251.901855	1319.802124	3.084690
703.711365	1219.679199	5311.065430	1292.495850	1.779755
704.036194	1196.923950	5124.472656	1287.944824	2.317498
704.360901	1174.168701	5022.074219	1233.332275	1.537553
704.685547	1162.791138	4915.125000	1231.056763	1.819284
705.010132	1208.301514	5067.584961	1278.842651	1.827830
705.334717	1121.831787	4960.635254	1244.709839	3.200947
705.659302	1228.781250	4812.726563	1306.148926	2.158729
705.983765	1140.035889	4721.705566	1206.026001	1.842440
706.308228	1274.291626	4821.828613	1281.118164	0.192430
706.632568	1133.209351	4780.869141	1285.669312	4.179665
706.956909	1119.556274	4799.073242	1192.372925	1.978973
707.281189	1140.035889	4815.001953	1285.669312	3.962851
707.605408	1158.240112	4835.481934	1260.638550	2.784653
707.929626	1183.270874	4762.665039	1226.505737	1.207882
708.253784	1167.342163	4958.359863	1221.954712	1.440578
708.577820	1226.505737	4794.522461	1169.617676	-1.594389
708.901855	1146.862427	4694.399414	1215.128052	1.924310
709.225830	1221.954712	4787.695801	1190.097412	-0.893427
709.549805	1171.893188	4815.001953	1301.597900	3.560276
709.873718	1185.546387	4944.706543	1381.241089	5.205809
710.197510	1153.689087	4944.706543	1319.802124	4.381753
710.521362	1233.332275	5094.891113	1347.108276	2.946375
710.845093	1192.372925	4910.573730	1303.873413	2.998775
711.168701	1160.515625	5001.594727	1231.056763	1.836493
711.492432	1149.138062	5044.829590	1333.455200	4.731308
711.816040	1119.556274	5094.891113	1258.363037	3.491700
712.139587	1199.199463	5103.993164	1315.250977	2.972027
712.463074	1146.862427	5242.799805	1319.802124	4.222225
712.786499	1176.444214	5438.494629	1383.516602	4.858516
713.109924	1155.964600	5245.075684	1306.148926	3.672787
713.433350	1190.097412	5210.942871	1335.730713	3.621957
713.756592	1155.964600	5113.095215	1269.740601	2.875215
714.079834	1196.923950	5074.411621	1283.393677	2.230045
714.403015	1165.066650	4956.084473	1196.923950	0.840336
714.726196	1192.372925	4935.604492	1278.842651	2.310029
715.049255	1171.893188	4903.747559	1306.148926	3.597561
715.372375	1249.260864	4901.471680	1326.628662	2.118382
715.695435	1174.168701	4910.573730	1240.158813	1.766139
716.018311	1187.821899	4896.920898	1262.914063	2.024539
716.341248	1178.719727	4894.645020	1356.210449	4.776488
716.664063	1176.444214	4919.675781	1328.904175	4.072950
716.987000	1210.577026	4924.227051	1299.322388	2.389707
717.309692	1165.066650	4919.675781	1299.322388	3.575758
717.632385	1183.270874	4755.838379	1249.260864	1.847131
717.955078	1105.903076	4794.522461	1358.485962	6.847627
718.277649	1155.964600	4610.205078	1262.914063	3.096179
718.600220	1208.301514	4723.980957	1269.740601	1.747574
718.922791	1226.505737	4683.021973	1256.087524	0.855827
719.245300	1133.209351	4448.643066	1303.873413	5.147564
719.567688	1224.230225	4291.632324	1342.557251	3.857565
719.890015	1224.230225	4355.346680	1274.291626	1.598835
720.212341	1176.444214	4268.876953	1262.914063	2.796176
720.534607	1194.648438	4232.468750	1303.873413	3.595505
720.856873	1121.831787	4141.447754	1219.679199	3.240393
721.179016	1140.035889	4066.355713	1269.740601	4.432349
721.501160	1151.413574	4118.692871	1260.638550	3.680981
721.823242	1171.893188	4109.590332	1240.158813	2.323780
722.145264	1151.413574	4159.651855	1249.260864	3.252644
722.467224	1208.301514	3991.263428	1276.567139	2.452985
722.789185	1155.964600	4073.182129	1190.097412	1.170047
723.111023	1167.342163	4084.559814	1267.465088	3.432137
723.432861	1219.679199	3902.518066	1326.628662	3.986429
723.754578	1149.138062	4052.702637	1324.353149	6.034482
724.076294	1192.372925	3979.885986	1317.526489	4.489793
724.397949	1199.199463	3836.528076	1249.260864	1.898186
724.719666	1133.209351	3988.988037	1215.128052	2.868524
725.041260	1178.719727	4014.018799	1272.016113	3.290531
725.362732	1158.240112	4029.947266	1242.434326	2.931853
725.684265	1096.801025	4043.600586	1281.118164	6.254825
726.005676	1158.240112	3984.437012	1278.842651	4.267309
726.327087	1221.954712	3836.528076	1324.353149	3.916449
726.648438	1169.617676	3968.508301	1294.771362	4.471546
726.969666	1221.954712	3986.712402	1287.944824	2.386832
727.290894	1228.781250	3938.926514	1237.883301	0.335851
727.612061	1126.382813	4050.427002	1267.465088	4.824903
727.933228	1244.709839	4070.906738	1297.046875	1.851854
728.254395	1135.484863	4268.876953	1333.455200	6.318084
728.575378	1144.586914	4257.499512	1326.628662	5.847956
728.896301	1124.107300	4080.008789	1276.567139	5.157812
729.217285	1176.444214	4186.958496	1297.046875	4.006049
729.538147	1158.240112	4289.356934	1344.832764	5.959301
729.858948	1194.648438	4243.846191	1272.016113	2.537313
730.179810	1153.689087	4227.917480	1272.016113	3.848999
730.500549	1226.505737	4202.886719	1358.485962	4.434252
730.821228	1180.995239	4095.937500	1322.077637	4.839972
731.141846	1155.964600	4225.642090	1338.006226	5.930318
731.462402	1235.607788	4250.672852	1303.873413	2.264151
731.782898	1167.342163	4241.570801	1251.536499	2.738714
732.103455	1249.260864	4223.366699	1258.363037	0.306047
732.423889	1235.607788	4159.651855	1303.873413	2.334631
732.744263	1178.719727	4243.846191	1315.250977	4.454343
733.064636	1237.883301	4264.326172	1283.393677	1.503758
733.384888	1201.474976	4202.886719	1299.322388	3.260046
733.705200	1190.097412	4221.091309	1319.802124	4.279280
734.025330	1208.301514	4234.744141	1258.363037	1.654137
734.345520	1224.230225	4330.315918	1310.699951	2.783881
734.665527	1210.577026	4166.478516	1283.393677	2.463433
734.985596	1206.026001	4086.835449	1324.353149	4.107427
735.305542	1171.893188	4180.131836	1262.914063	3.025720
735.625549	1158.240112	4025.396240	1356.210449	6.904763
735.945435	1140.035889	3934.375488	1294.771362	5.537461
736.265259	1219.679199	3995.814453	1290.220337	2.540983
736.585083	1201.474976	3922.997803	1299.322388	3.595318
736.904785	1135.484863	3834.252441	1242.434326	3.962900
737.224426	1196.923950	3888.864990	1260.638550	2.366865
737.544128	1155.964600	3904.793701	1303.873413	5.380794
737.863708	1194.648438	3818.323975	1335.730713	5.377276
738.183289	1153.689087	3816.048340	1312.975464	5.982903
738.502808	1246.985352	3893.416016	1310.699951	2.407567
738.822205	1185.546387	3761.435791	1240.158813	2.120139
739.141541	1178.719727	3970.783691	1360.761475	6.519970
739.460938	1217.403687	3784.191162	1244.709839	1.063826
739.780212	1190.097412	3970.783691	1262.914063	2.618658
740.099426	1228.781250	4007.192139	1290.220337	2.211303
740.418640	1206.026001	3988.988037	1297.046875	3.270648
740.737793	1149.138062	4041.324951	1249.260864	3.461837
741.056885	1169.617676	3991.263428	1237.883301	2.419355
741.375977	1174.168701	3913.895752	1256.087524	2.990036
741.694946	1160.515625	3995.814453	1312.975464	5.377205
742.013855	1199.199463	3888.864990	1287.944824	3.299494
742.332703	1137.760376	3781.915527	1335.730713	7.487092
742.651550	1228.781250	3629.455566	1319.802124	3.791471
742.970398	1158.240112	3611.251465	1322.077637	6.679037
743.289124	1169.617676	3702.272461	1324.353149	6.109616
743.607788	1196.923950	3761.435791	1394.894287	7.719611
743.926453	1190.097412	3524.781738	1294.771362	4.483430
744.245056	1083.147949	3711.374512	1294.771362	8.051948
744.563599	1158.240112	3554.363525	1246.985352	3.703701
744.882141	1171.893188	3652.210938	1285.669312	4.587159
745.200500	1135.484863	3568.016602	1351.659302	8.886808
745.518860	1240.158813	3618.078125	1333.455200	3.923446
745.837219	1130.933838	3508.853027	1290.220337	6.698566
746.155518	1167.342163	3593.047363	1299.322388	5.440902
746.473755	1144.586914	3458.791504	1324.353149	7.767949
746.791992	1240.158813	3572.567627	1299.322388	2.536587
747.110107	1155.964600	3458.791504	1399.445313	10.573123
747.428162	1251.536499	3486.097900	1344.832764	4.175148
747.746216	1149.138062	3495.199951	1338.006226	8.050433
748.064148	1158.240112	3438.312012	1369.863525	9.281437
748.382080	1192.372925	3524.781738	1347.108276	6.634144
748.700073	1119.556274	3508.853027	1301.597900	7.619046
749.017822	1153.689087	3431.485352	1342.557251	8.291705
749.335632	1126.382813	3454.240479	1251.536499	5.376346
749.653320	1206.026001	3538.434814	1433.578125	9.756100
749.971008	1174.168701	3529.332764	1303.873413	5.507247
750.288696	1183.270874	3522.506104	1376.690063	8.268479
750.606262	1105.903076	3595.322754	1322.077637	8.683733
750.923828	1187.821899	3497.475586	1369.863525	7.881771
751.241272	1210.577026	3620.353516	1360.761475	6.232298
751.558716	1199.199463	3533.883789	1397.169800	8.479533
751.876038	1215.128052	3438.312012	1397.169800	8.188334
752.193481	1174.168701	3351.842041	1429.027100	11.703243
752.510681	1137.760376	3422.383301	1394.894287	11.254982
752.827942	1176.444214	3417.832275	1287.944824	4.974623
753.145081	1124.107300	3486.097900	1501.843750	15.992291
753.462219	1151.413574	3345.015625	1415.373901	12.033191
753.779297	1185.546387	3504.302002	1394.894287	9.028459
754.096375	1105.903076	3379.148438	1497.292725	17.217220
754.413330	1201.474976	3349.566650	1410.822876	9.745761
754.730286	1140.035889	3433.760986	1469.986450	14.384922
755.047119	1192.372925	3445.138428	1419.924927	10.101007
755.363892	1085.423462	3342.739990	1385.792114	13.306449
755.680725	1155.964600	3342.739990	1410.822876	11.654525
755.997498	1203.750488	3269.923340	1374.414551	8.259912
756.314148	1219.679199	3306.331787	1472.261963	12.104687
756.630737	1183.270874	3345.015625	1447.231201	12.210523
756.947327	1165.066650	3242.617188	1415.373901	12.048191
757.263855	1174.168701	3253.994629	1447.231201	13.129104
757.580261	1187.821899	3292.678711	1499.568237	14.810809
757.896729	1208.301514	3333.637939	1474.537476	12.526768
758.213074	1180.995239	3420.107666	1460.884399	12.500006
758.529419	1149.138062	3263.096924	1444.955688	13.993537
758.845642	1192.372925	3367.770752	1479.088501	13.179914
759.161865	1199.199463	3372.321777	1524.598877	14.973820
759.478149	1246.985352	3451.965088	1510.945801	11.971106
759.794189	1233.332275	3424.658691	1565.558350	15.160958
760.110229	1162.791138	3442.863037	1417.649414	11.177643
760.426270	1215.128052	3522.506104	1556.456177	14.792901
760.742249	1192.372925	3515.679688	1531.425537	14.593537
761.058105	1162.791138	3472.444824	1510.945801	15.073890
761.374023	1187.821899	3611.251465	1563.282837	15.492958
761.689819	1092.250000	3411.005615	1574.660400	20.804710
762.005554	1192.372925	3449.689453	1581.486938	17.237904
762.321289	1192.372925	3540.710449	1597.415649	17.248064
762.636902	1206.026001	3486.097900	1615.619751	17.964073
762.952515	1126.382813	3599.874023	1611.068726	19.595215
763.268127	1203.750488	3563.465576	1588.313477	16.297009
763.583618	1151.413574	3674.966064	1652.028076	19.837688
763.899048	1185.546387	4127.794922	1711.191650	17.865427
764.214478	1133.209351	4373.550781	1797.661377	20.505619
764.529785	1183.270874	4689.848145	1925.090576	21.155094
764.845093	1201.474976	4912.849609	2007.009399	21.704477
765.160400	1301.597900	4896.920898	1945.570313	17.911392
765.475586	1187.821899	4749.011719	1950.121338	21.405750
765.790771	1178.719727	4357.622559	1993.356201	25.626341
766.105835	1119.556274	4337.142578	1890.957764	23.974539
766.420837	1142.311401	4250.672852	1954.672363	26.134703
766.735840	1190.097412	4050.427002	1843.171875	22.832140
767.050842	1178.719727	3802.395264	1756.702026	22.029488
767.365662	1242.434326	3706.823486	1820.416626	23.453369
767.680542	1137.760376	3613.527100	1770.355225	25.551474
767.995300	1103.627563	3624.904541	1761.253052	26.083033
768.309998	1176.444214	3597.598389	1768.079712	24.436092
768.624817	1158.240112	3445.138428	1774.906250	26.965174
768.939392	1226.505737	3536.159424	1761.253052	23.152704
769.254028	1183.270874	3367.770752	1699.814087	23.645832
769.568481	1210.577026	3363.219727	1733.946899	24.312902
769.882935	1183.270874	3297.229736	1774.906250	27.987080
770.197388	1194.648438	3226.688477	1683.885376	24.076147
770.511841	1140.035889	3240.341553	1681.609863	25.785484
770.826172	1240.158813	3290.403076	1720.293701	23.418425
771.140442	1251.536499	3215.310791	1656.579102	20.625721
771.454651	1140.035889	3267.647949	1754.426514	28.877005
771.768860	1178.719727	3197.106689	1715.742676	26.606541
772.082886	1153.689087	3110.636963	1747.599976	30.348835
772.397034	1155.964600	3208.484375	1847.722900	33.702881
772.711060	1165.066650	3203.933350	1686.160889	25.558033
773.025024	1196.923950	3083.330566	1665.681274	24.849220
773.338928	1178.719727	3035.544678	1667.956787	26.348043
773.652771	1176.444214	3183.453613	1736.222412	27.891159
773.966614	1171.893188	3096.983887	1677.058838	26.241135
774.280457	1178.719727	3037.820313	1692.987427	27.662178
774.594116	1128.658325	2985.483398	1715.742676	31.617645
774.907776	1124.107300	2990.034424	1770.355225	34.634148
775.221375	1119.556274	2951.350586	1645.201538	28.695648
775.534912	1183.270874	2942.248291	1756.702026	32.600258
775.848450	1224.230225	2960.452637	1788.559326	32.503273
776.161926	1137.760376	2992.309814	1738.497925	32.392643
776.475342	1174.168701	2928.595215	1661.130127	27.756159
776.788696	1192.372925	3010.513916	1633.823975	24.280354
777.101990	1231.056763	2903.564453	1774.906250	32.517010
777.415283	1235.607788	2787.512939	1656.579102	27.126099
777.728516	1256.087524	2876.258301	1740.773438	29.915730
778.041626	1210.577026	2885.360352	1690.711914	28.668478
778.354736	1171.893188	2862.605225	1727.120239	32.839836
778.667725	1251.536499	2821.645752	1718.018188	29.710142
778.980774	1135.484863	2880.809326	1768.079712	36.245113
779.293640	1183.270874	2778.410889	1697.538574	32.239658
779.606567	1206.026001	2785.237549	1722.569214	32.708931
779.919434	1180.995239	2848.952148	1749.875488	34.106411
780.232239	1169.617676	2817.094727	1781.732788	37.154697
780.544983	1158.240112	2810.268311	1652.028076	29.889803
780.857666	1272.016113	2785.237549	1674.783325	26.616541
781.170227	1217.403687	2807.992676	1611.068726	24.749640
781.482849	1219.679199	2855.778564	1590.588989	22.670370
781.795410	1190.097412	2753.380127	1752.151001	35.953419
782.107910	1183.270874	2730.625000	1697.538574	33.235294
782.420288	1206.026001	2712.420898	1624.721802	27.794558
782.732666	1180.995239	2641.879639	1711.191650	36.292839
783.044983	1126.382813	2707.869873	1699.814087	36.258991
783.357300	1144.586914	2805.717041	1713.467163	34.246578
783.669495	1171.893188	2598.644775	1658.854614	34.130779
783.981689	1121.831787	2571.338623	1658.854614	37.048656
784.293762	1126.382813	2639.604248	1727.120239	39.699242
784.605835	1196.923950	2628.226563	1681.609863	33.863274
784.917908	1187.821899	2666.910400	1661.130127	31.999994
785.229858	1171.893188	2578.165039	1692.987427	37.055016
785.541748	1180.995239	2578.165039	1613.344238	30.944628
785.853577	1219.679199	2566.787354	1674.783325	33.783787
786.165405	1124.107300	2596.369141	1620.170776	33.693970
786.477173	1233.332275	2621.399902	1708.916138	34.262299
786.788879	1192.372925	2616.848877	1656.579102	32.587856
787.100525	1144.586914	2539.481201	1663.405762	37.194134
787.412109	1180.995239	2582.716064	1606.517700	30.357147
787.723694	1224.230225	2605.471436	1638.375000	29.983522
788.035156	1233.332275	2610.022461	1633.823975	29.090910
788.346558	1208.301514	2630.501953	1667.956787	32.320007
788.658081	1221.954712	2553.134277	1677.058838	34.188034
788.969360	1133.209351	2782.961914	1652.028076	31.448275
789.280640	1185.546387	2712.420898	1688.436401	32.935909
789.591919	1212.852539	2776.135498	1772.630737	35.807861
789.903076	1192.372925	2894.462402	1822.692139	37.032085
790.214172	1219.679199	2755.655762	1799.937012	37.777779
790.525269	1171.893188	2719.247314	1702.089600	34.264709
790.836365	1160.515625	2769.308838	1736.222412	35.785007
791.147339	1196.923950	2655.532715	1736.222412	36.973484
791.458191	1144.586914	2616.848877	1665.681274	35.394135
791.769104	1153.689087	2557.685303	1695.262939	38.573742
792.079895	1180.995239	2550.858887	1579.211426	29.069769
792.390686	1185.546387	2534.930176	1640.650513	33.726810
792.701416	1185.546387	2548.583252	1631.548462	32.721203
793.012085	1199.199463	2537.205811	1663.405762	34.693878
793.322693	1169.617676	2434.807373	1638.375000	37.050358
793.633240	1140.035889	2475.766602	1629.272949	36.626923
793.943787	1171.893188	2505.348389	1672.507813	37.542664
794.254272	1167.342163	2434.807373	1656.579102	38.599636
794.564636	1176.444214	2350.613037	1640.650513	39.534885
794.875000	1133.209351	2519.001465	1611.068726	34.482761
795.185303	1149.138062	2446.184814	1526.874512	29.122808
795.495544	1176.444214	2409.776611	1636.099487	37.269375
795.805786	1221.954712	2402.949951	1561.007324	28.709059
796.115906	1203.750488	2441.633789	1624.721802	34.007351
796.426025	1130.933838	2405.225586	1626.997314	38.928562
796.736023	1192.372925	2523.552490	1699.814087	38.119663
797.045959	1185.546387	2500.797363	1774.906250	44.809689
797.355896	1153.689087	2644.155273	1745.324463	39.694653
797.665833	1185.546387	2559.960938	1702.089600	37.582783
797.975708	1185.546387	2610.022461	1667.956787	33.865814
798.285461	1165.066650	2578.165039	1681.609863	36.553944
798.595154	1142.311401	2453.011475	1667.956787	40.104172
798.904846	1165.066650	2546.307861	1624.721802	33.278412
799.214478	1151.413574	2612.297852	1658.854614	34.735199
799.524109	1140.035889	2457.562500	1597.415649	34.715031
799.833557	1201.474976	2437.082764	1624.721802	34.254139
800.143005	1158.240112	2343.786377	1590.588989	36.468327
800.452393	1146.862427	2437.082764	1686.160889	41.798943
800.761780	1183.270874	2325.582275	1540.527588	31.274897
801.071106	1169.617676	2375.643799	1608.793213	36.415092
801.380371	1142.311401	2346.062012	1574.660400	35.916824
801.689575	1160.515625	2309.653564	1599.691162	38.217827
801.998718	1146.862427	2325.582275	1636.099487	41.505795
802.307800	1183.270874	2321.031250	1547.354126	31.999994
802.616882	1165.066650	2393.847900	1622.446289	37.222218
802.925903	1155.964600	2293.724854	1601.966675	39.200005
803.234863	1203.750488	2300.551514	1622.446289	38.174271
803.543701	1174.168701	2286.898438	1601.966675	38.445812
803.852539	1155.964600	2314.204590	1499.568237	29.666014
804.161316	1110.454102	2248.214600	1601.966675	43.200005
804.470032	1174.168701	2327.857666	1533.701050	31.163715
804.778809	1153.689087	2177.673340	1604.242188	44.000004
805.087341	1190.097412	2293.724854	1547.354126	32.371132
805.395935	1140.035889	2277.796387	1586.037964	39.199997
805.704468	1183.270874	2268.694336	1561.007324	34.800838
806.012939	1130.933838	2325.582275	1601.966675	39.428574
806.321350	1240.158813	2214.081787	1652.028076	42.289715
806.629761	1203.750488	2398.398926	1572.384888	30.857145
806.938049	1151.413574	2273.245361	1617.895264	41.582142
807.246277	1235.607788	2330.133301	1595.140137	32.848240
807.554504	1140.035889	2350.613037	1649.752563	42.105263
807.862671	1185.546387	2409.776611	1613.344238	34.944233
808.170715	1194.648438	2282.347412	1583.762451	35.774052
808.478821	1190.097412	2241.387939	1565.558350	35.714291
808.786804	1174.168701	2350.613037	1597.415649	35.976795
809.094727	1226.505737	2282.347412	1597.415649	35.129311
809.402649	1210.577026	2248.214600	1626.997314	40.131573
809.710510	1206.026001	2327.857666	1506.394775	26.774853
810.018311	1194.648438	2334.684326	1542.803101	30.538921
810.326050	1142.311401	2252.765625	1531.425537	35.040989
810.633667	1137.760376	2220.908203	1513.221313	34.663868
810.941345	1185.546387	2252.765625	1599.691162	38.805969
811.248901	1190.097412	2241.387939	1533.701050	32.683987
811.556396	1135.484863	2127.612061	1535.976563	40.366970
811.863892	1130.933838	2209.530762	1579.211426	41.561176
812.171326	1187.821899	2189.051025	1558.731689	37.045444
812.478699	1224.230225	2166.295898	1547.354126	34.299511
812.786011	1242.434326	2136.714111	1576.935913	37.404579
813.093262	1174.168701	2148.091553	1526.874512	36.214966
813.400391	1210.577026	2098.030273	1508.670288	33.589741
813.707642	1274.291626	2111.683350	1570.109375	35.326088
814.014709	1258.363037	2132.163086	1510.945801	28.906242
814.321716	1158.240112	2118.509766	1529.150024	38.625599
814.628723	1246.985352	2095.754639	1565.558350	37.533520
814.935669	1203.750488	2223.183838	1565.558350	35.491077
815.242554	1174.168701	2166.295898	1579.211426	40.825684
815.549438	1224.230225	2166.295898	1526.874512	32.125603
815.856201	1199.199463	2145.816162	1606.517700	43.028847
816.162964	1196.923950	2116.234375	1533.701050	36.633663
816.469604	1185.546387	2034.315552	1481.364014	34.852543
816.776184	1171.893188	2159.469238	1435.853638	26.728113
817.082825	1162.791138	2225.459229	1490.466064	30.835115
817.389343	1130.933838	2259.592041	1574.660400	39.314522
817.695801	1176.444214	2136.714111	1501.843750	33.886257
818.002197	1178.719727	2161.744873	1522.323364	34.953697
818.308533	1153.689087	2136.714111	1574.660400	42.824070
818.614868	1231.056763	2138.989502	1529.150024	32.832085
818.921143	1146.862427	2223.183838	1533.701050	35.940807
819.227356	1094.525513	2234.561523	1542.803101	39.321354
819.533447	1206.026001	2223.183838	1526.874512	31.543631
819.839539	1196.923950	2305.102539	1588.313477	35.318272
820.145569	1212.852539	2284.622803	1522.323364	28.874735
820.451538	1208.301514	2341.510986	1604.242188	34.939762
820.757568	1171.893188	2537.205811	1667.956787	36.333336
821.063416	1169.617676	2698.767578	1736.222412	37.053577
821.369263	1180.995239	2721.522949	1718.018188	34.859676
821.675049	1146.862427	2764.757813	1679.334351	32.911392
821.980713	1199.199463	2999.136475	1827.243164	34.892536
822.286438	1149.138062	3185.729004	1911.437500	37.430168
822.592102	1192.372925	3863.834229	2100.305664	33.986370
822.897583	1224.230225	5477.178711	2682.839111	34.296417
823.203125	1235.607788	7759.525879	3568.016602	35.751656
823.508545	1199.199463	9411.553711	4045.875977	34.663342
823.813965	1151.413574	10276.251953	4305.285156	34.563591
824.119263	1199.199463	9281.849609	4221.091309	37.387386
824.424622	1133.209351	8112.231445	3706.823486	36.876431
824.729858	1142.311401	6981.297852	3276.750000	36.554951
825.035095	1176.444214	6030.129883	2851.227539	34.505394
825.340149	1167.342163	5169.983398	2705.594238	38.430927
825.645264	1265.189575	4794.522461	2530.379150	35.847839
825.950256	1210.577026	4519.184082	2366.541748	34.938110
826.255310	1192.372925	4196.060547	2216.357178	34.090904
826.560242	1185.546387	3952.579590	2152.642578	34.950653
826.865112	1135.484863	3752.333740	2138.989502	38.347824
827.169922	1140.035889	3663.588379	2011.560425	34.535622
827.474670	1169.617676	3561.189941	2063.897461	37.392963
827.779419	1212.852539	3950.304199	2195.877686	35.910229
828.084045	1199.199463	4453.194336	2336.959961	34.965038
828.388672	1167.342163	4865.063477	2505.348389	36.184616
828.693176	1130.933838	5024.350098	2525.828125	35.827000
828.997681	1208.301514	4607.929688	2382.470215	34.538151
829.302124	1112.729614	4050.427002	2195.877686	36.870651
829.606567	1119.556274	3556.638916	2004.733887	36.321201
829.910828	1199.199463	3338.188965	1936.468262	34.468090
830.215149	1215.128052	3069.677490	1856.824951	34.601231
830.519348	1144.586914	2914.942139	1854.549438	40.102829
830.823547	1099.076538	2712.420898	1713.467163	38.081802
831.127686	1167.342163	2707.869873	1733.946899	36.779911
831.431763	1155.964600	2523.552490	1654.303589	36.439266
831.735779	1210.577026	2478.042236	1563.282837	27.827652
832.039734	1176.444214	2366.541748	1570.109375	33.078396
832.343628	1149.138062	2243.663574	1595.140137	40.748440
832.647461	1124.107300	2232.285889	1533.701050	36.960987
832.951233	1155.964600	2277.796387	1561.007324	36.105476
833.255127	1180.995239	2334.684326	1574.660400	34.122292
833.558777	1146.862427	2230.010498	1633.823975	44.957985
833.862366	1196.923950	2468.940186	1647.477051	35.420387
834.165955	1117.280762	2575.889648	1692.987427	39.469570
834.469482	1155.964600	3026.442627	1849.998413	37.104622
834.773010	1185.546387	3358.668701	1936.468262	34.554974
835.076416	1167.342163	3652.210938	2084.376953	36.904758
835.379822	1199.199463	3549.812500	1956.947876	32.236202
835.683105	1149.138062	3376.872803	1950.121338	35.955055
835.986389	1174.168701	3046.922363	1913.713013	39.489674
836.289612	1121.831787	2926.319824	1893.233276	42.749050
836.592773	1103.627563	2712.420898	1661.130127	34.653461
836.895874	1212.852539	2591.818115	1740.773438	38.283836
837.198914	1133.209351	2505.348389	1699.814087	41.293537
837.501892	1165.066650	2357.439453	1604.242188	36.832066
837.804871	1187.821899	2398.398926	1620.170776	35.714279
838.107666	1121.831787	2202.704102	1565.558350	41.052635
838.410583	1183.270874	2120.785400	1542.803101	38.349510
838.713379	1153.689087	2138.989502	1490.466064	34.180130
839.016052	1219.679199	2000.182739	1533.701050	40.233238
839.318787	1146.862427	1888.682251	1520.047852	50.306747
839.621338	1224.230225	1904.610962	1442.680176	32.107018
839.923889	1206.026001	1886.406738	1413.098389	30.434780
840.226440	1196.923950	1986.529663	1438.129150	30.547550
840.528931	1210.577026	1970.601074	1408.547363	26.047905
840.831299	1226.505737	2123.060791	1449.506714	24.873093
841.133606	1174.168701	2152.642578	1545.078613	37.906982
841.435913	1194.648438	2150.367188	1495.017212	31.428574
841.738220	1201.474976	2123.060791	1469.986450	29.135809
842.040405	1231.056763	2136.714111	1570.109375	37.437183
842.342529	1228.781250	2063.897461	1438.129150	25.068115
842.644592	1194.648438	1995.631714	1431.302612	29.545458
842.946594	1199.199463	1870.478149	1431.302612	34.576271
843.248596	1249.260864	1950.121338	1442.680176	27.597406
843.550598	1162.791138	1795.385864	1433.578125	42.805759
843.852478	1119.556274	1804.488037	1426.751587	44.850498
844.154236	1210.577026	1738.497925	1363.036987	28.879318
844.455994	1178.719727	1740.773438	1356.210449	31.578960
844.757690	1244.709839	1804.488037	1381.241089	24.390242
845.059326	1233.332275	1779.457275	1426.751587	35.416676
845.360962	1137.760376	1765.804199	1319.802124	28.985518
845.662476	1160.515625	1702.089600	1401.720825	44.537811
845.963989	1135.484863	1674.783325	1328.904175	35.864986
846.265381	1237.883301	1661.130127	1310.699951	17.204300
846.566772	1105.903076	1624.721802	1347.108276	46.491230
846.868042	1171.893188	1647.477051	1406.271851	49.282299
847.169373	1128.658325	1690.711914	1278.842651	26.720642
847.470581	1176.444214	1683.885376	1351.659302	34.529144
847.771729	1208.301514	1613.344238	1363.036987	38.202259
848.072815	1194.648438	1665.681274	1378.965576	39.130421
848.373901	1183.270874	1533.701050	1310.699951	36.363613
848.674866	1171.893188	1645.201538	1306.148926	28.365385
848.975891	1165.066650	1683.885376	1310.699951	28.070171
849.276794	1221.954712	1699.814087	1292.495850	14.761903
849.577637	1235.607788	1677.058838	1363.036987	28.865986
849.878357	1151.413574	1506.394775	1274.291626	34.615368
850.179077	1194.648438	1622.446289	1258.363037	14.893623
850.479736	1146.862427	1667.956787	1351.659302	39.301304
850.780396	1190.097412	1599.691162	1324.353149	32.777779
851.080994	1176.444214	1613.344238	1319.802124	32.812519
851.381470	1133.209351	1556.456177	1315.250977	43.010750
851.681946	1080.872437	1633.823975	1265.189575	33.333324
851.982361	1142.311401	1604.242188	1283.393677	30.541864
852.282715	1155.964600	1558.731689	1272.016113	28.813555
852.583008	1192.372925	1563.282837	1390.343262	53.374237
852.883240	1206.026001	1595.140137	1301.597900	24.561405
853.183411	1174.168701	1661.130127	1267.465088	19.158886
853.483521	1208.301514	1510.945801	1297.046875	29.323322
853.783630	1160.515625	1661.130127	1338.006226	35.454548
854.083679	1196.923950	1551.905151	1322.077637	35.256428
854.383667	1187.821899	1570.109375	1233.332275	11.904752
854.683533	1215.128052	1563.282837	1335.730713	34.640530
854.983337	1178.719727	1554.180664	1265.189575	23.030317
855.283203	1171.893188	1604.242188	1303.873413	30.526318
855.582886	1176.444214	1542.803101	1388.067749	57.763996
855.882629	1233.332275	1510.945801	1342.557251	39.344257
856.182312	1169.617676	1531.425537	1335.730713	45.911949
856.481873	1140.035889	1654.303589	1342.557251	39.380531
856.781372	1183.270874	1570.109375	1267.465088	21.764694
857.080872	1178.719727	1551.905151	1262.914063	22.560993
857.380310	1142.311401	1597.415649	1251.536499	24.000017
857.679688	1133.209351	1579.211426	1308.424438	39.285713
857.979004	1144.586914	1515.496826	1283.393677	37.423309
858.278259	1167.342163	1510.945801	1338.006226	49.668877
858.577454	1165.066650	1549.629639	1351.659302	48.520699
858.876648	1183.270874	1522.323364	1276.567139	27.516762
859.175720	1212.852539	1551.905151	1324.353149	32.885933
859.474792	1146.862427	1529.150024	1351.659302	53.571415
859.773743	1235.607788	1608.793213	1344.832764	29.268286
860.072693	1130.933838	1592.864502	1281.118164	32.512310
860.371521	1215.128052	1538.252075	1340.281738	38.732399
860.670349	1162.791138	1567.833862	1297.046875	33.146069
860.969116	1190.097412	1542.803101	1326.628662	38.709682
861.267883	1180.995239	1524.598877	1294.771362	33.112606
861.566589	1231.056763	1588.313477	1274.291626	12.101904
861.865112	1130.933838	1558.731689	1328.904175	46.276608
862.163635	1196.923950	1581.486938	1303.873413	27.810650
862.462158	1144.586914	1565.558350	1324.353149	42.702717
862.760620	1176.444214	1520.047852	1308.424438	38.410603
863.059021	1262.914063	1492.741699	1312.975464	21.782150
863.357361	1180.995239	1540.527588	1276.567139	26.582281
863.655640	1089.974487	1535.976563	1317.526489	51.020390
863.953857	1158.240112	1545.078613	1294.771362	35.294121
864.251953	1226.505737	1531.425537	1281.118164	17.910423
864.550110	1174.168701	1574.660400	1272.016113	24.431820
864.848206	1194.648438	1574.660400	1215.128052	5.389203
865.146179	1167.342163	1520.047852	1294.771362	36.129047
865.444092	1176.444214	1531.425537	1349.383789	48.717937
865.741943	1278.842651	1576.935913	1260.638550	-6.106848
866.039795	1180.995239	1579.211426	1308.424438	32.000004
866.337646	1233.332275	1581.486938	1251.536499	5.228775
866.635376	1240.158813	1485.915039	1326.628662	35.185211
866.933044	1206.026001	1611.068726	1278.842651	17.977524
867.230652	1212.852539	1479.088501	1299.322388	32.478649
867.528198	1228.781250	1508.670288	1299.322388	25.203251
867.825745	1224.230225	1535.976563	1183.270874	-13.138679
868.123230	1233.332275	1588.313477	1344.832764	31.410252
868.420593	1217.403687	1535.976563	1283.393677	20.714252
868.717896	1178.719727	1526.874512	1340.281738	46.405224
869.015198	1121.831787	1504.119263	1285.669312	42.857151
869.312439	1167.342163	1488.190552	1253.812012	26.950377
869.609619	1174.168701	1531.425537	1292.495850	33.121033
869.906738	1174.168701	1426.751587	1340.281738	65.765755
870.203796	1146.862427	1533.701050	1342.557251	50.588234
870.500854	1130.933838	1542.803101	1301.597900	41.436466
870.797791	1126.382813	1499.568237	1310.699951	49.390228
871.094666	1199.199463	1495.017212	1301.597900	34.615379
871.391602	1174.168701	1624.721802	1351.659302	39.393936
871.688293	1212.852539	1531.425537	1301.597900	27.857151
871.985107	1187.821899	1531.425537	1274.291626	25.165545
872.281738	1217.403687	1529.150024	1312.975464	30.656904
872.578369	1228.781250	1490.466064	1328.904175	38.260883
872.874939	1119.556274	1533.701050	1256.087524	32.967033
873.171509	1158.240112	1481.364014	1276.567139	36.619709
873.467957	1169.617676	1590.588989	1322.077637	36.216236
873.764343	1115.005249	1554.180664	1299.322388	41.968910
874.060669	1178.719727	1558.731689	1328.904175	39.520981
874.356995	1178.719727	1645.201538	1301.597900	26.341471
874.653198	1297.046875	1604.242188	1253.812012	-14.074063
874.949463	1185.546387	1554.180664	1301.597900	31.481476
875.245544	1119.556274	1590.588989	1269.740601	31.884054
875.541626	1137.760376	1515.496826	1283.393677	38.554211
875.837646	1251.536499	1504.119263	1178.719727	-28.828876
876.133606	1165.066650	1510.945801	1294.771362	37.500008
876.429565	1192.372925	1479.088501	1297.046875	36.507938
876.725403	1174.168701	1547.354126	1301.597900	34.146351
877.021179	1169.617676	1517.772339	1290.220337	34.640541
877.316956	1203.750488	1592.864502	1331.179688	32.748550
877.612610	1185.546387	1604.242188	1249.260864	15.217367
877.908203	1121.831787	1570.109375	1297.046875	39.086292
878.203857	1135.484863	1540.527588	1344.832764	51.685387
878.499390	1146.862427	1520.047852	1317.526489	45.731705
878.794800	1153.689087	1563.282837	1335.730713	44.444435
879.090271	1144.586914	1561.007324	1306.148926	38.797813
879.385559	1167.342163	1590.588989	1351.659302	43.548382
879.680847	1142.311401	1622.446289	1338.006226	40.758301
879.976196	1178.719727	1640.650513	1351.659302	37.438416
880.271301	1169.617676	1695.262939	1331.179688	30.735939
880.566467	1178.719727	1786.283813	1367.588013	31.086151
880.861572	1185.546387	1806.763550	1367.588013	29.304024
881.156555	1178.719727	1802.212524	1363.036987	29.562052
881.451477	1160.515625	2179.948975	1481.364014	31.473209
881.746460	1185.546387	2655.532715	1677.058838	33.436531
882.041321	1124.107300	3208.484375	1911.437500	37.772926
882.336121	1231.056763	4000.365479	2066.172852	30.156122
882.630798	1178.719727	4414.510254	2266.418701	33.614628
882.925537	1208.301514	4535.112793	2309.653564	33.105335
883.220215	1226.505737	4314.387207	2307.378174	35.003689
883.514771	1192.372925	3982.161377	2179.948975	35.399673
883.809326	1162.791138	3761.435791	2011.560425	32.661999
884.103760	1253.812012	3538.434814	1986.529663	32.071712
884.398132	1221.954712	3297.229736	1900.059814	32.675434
884.692505	1160.515625	3149.320801	1793.110352	31.807777
884.986816	1262.914063	2892.187012	1713.467163	27.653629
885.281067	1135.484863	2858.054199	1720.293701	33.949799
885.575256	1185.546387	2537.205811	1624.721802	32.491573
885.869385	1242.434326	2368.817139	1590.588989	30.909088
886.163452	1217.403687	2161.744873	1524.598877	32.530106
886.457458	1160.515625	2132.163086	1495.017212	34.426231
886.751465	1244.709839	2036.591064	1531.425537	36.206905
887.045410	1162.791138	1913.713013	1476.812988	41.818180
887.339233	1190.097412	1893.233276	1397.169800	29.449841
887.632996	1130.933838	1743.048950	1333.455200	33.085503
887.926758	1160.515625	1690.711914	1353.934937	36.480698
888.220398	1153.689087	1697.538574	1369.863525	39.748947
888.514099	1212.852539	1658.854614	1290.220337	17.346960
888.807678	1135.484863	1749.875488	1269.740601	21.851852
889.101196	1153.689087	1622.446289	1367.588013	45.631069
889.394653	1146.862427	1636.099487	1351.659302	41.860458
889.688049	1208.301514	1608.793213	1356.210449	36.931835
889.981384	1215.128052	1481.364014	1283.393677	25.641024
890.274719	1217.403687	1561.007324	1356.210449	40.397350
890.567932	1196.923950	1554.180664	1297.046875	28.025484
>>>>>End Processed Spectral Data<<<<<
