Jaz Data File
++++++++++++++++++++++++++++++++++++
Date: Wed Feb 07 06:41:40 2024
User: jaz
Dark Spectrum Present: Yes
Reference Spectrum Present: Yes
Processed Spectrum Present: Yes
Spectrometers: JAZA3692
Integration Time (usec): 40000 (JAZA3692)
Spectra Averaged: 1 (JAZA3692)
Boxcar Smoothing: 0 (JAZA3692)
Correct for Electrical Dark: No (JAZA3692)
Strobe/Lamp Enabled: Yes (JAZA3692)
Correct for Detector Non-linearity: No (JAZA3692)
Correct for Stray Light: No (JAZA3692)
Number of Pixels in Processed Spectrum: 2048
>>>>>Begin Processed Spectral Data<<<<<
W	D	R	S	P
190.244385	0.000000	0.000000	0.000000	0.000000
190.627136	0.000000	0.000000	0.000000	0.000000
191.009842	1133.209351	1160.515625	1085.423462	-174.999664
191.392532	1219.679199	1183.270874	1144.586914	206.250320
191.775177	1244.709839	1165.066650	1153.689087	114.285667
192.157791	1153.689087	1171.893188	1149.138062	-25.000000
192.540390	1174.168701	1199.199463	1112.729614	-245.454330
192.922943	1128.658325	1212.852539	1215.128052	102.702698
193.305481	1171.893188	1212.852539	1140.035889	-77.777847
193.687958	1210.577026	1221.954712	1151.413574	-519.995483
194.070419	1153.689087	1167.342163	1212.852539	433.334229
194.452866	1206.026001	1203.750488	1151.413574	2400.005371
194.835251	1194.648438	1260.638550	1203.750488	13.793053
195.217621	1242.434326	1187.821899	1203.750488	70.833397
195.599960	1226.505737	1178.719727	1260.638550	-71.428459
195.982254	1228.781250	1260.638550	1274.291626	142.856979
196.364517	1208.301514	1178.719727	1219.679199	-38.461792
196.746750	1240.158813	1149.138062	1142.311401	107.500114
197.128952	1224.230225	1199.199463	1149.138062	299.999512
197.511139	1180.995239	1171.893188	1094.525513	950.002686
197.893280	1224.230225	1187.821899	1237.883301	-37.499874
198.275391	1192.372925	1224.230225	1219.679199	85.714340
198.657471	1206.026001	1251.536499	1187.821899	-39.999786
199.039520	1203.750488	1237.883301	1149.138062	-159.999786
199.421539	1208.301514	1210.577026	1158.240112	-2200.005371
199.803513	1180.995239	1153.689087	1140.035889	150.000443
200.185471	1180.995239	1196.923950	1124.107300	-357.140900
200.567383	1221.954712	1244.709839	1237.883301	70.000000
200.949265	1119.556274	1208.301514	1176.444214	64.102524
201.331131	1167.342163	1199.199463	1149.138062	-57.142639
201.712967	1192.372925	1183.270874	1085.423462	1175.004028
202.094742	1176.444214	1171.893188	1117.280762	1300.002686
202.476517	1226.505737	1240.158813	1187.821899	-283.334229
202.858231	1153.689087	1158.240112	1178.719727	550.000000
203.239944	1183.270874	1167.342163	1146.862427	228.571213
203.621582	1192.372925	1190.097412	1167.342163	1100.005371
204.003235	1237.883301	1194.648438	1167.342163	163.158005
204.384827	1219.679199	1251.536499	1217.403687	-7.142830
204.766388	1167.342163	1228.781250	1126.382813	-66.666603
205.147934	1185.546387	1176.444214	1155.964600	324.996979
205.529449	1146.862427	1231.056763	1083.147949	-75.675491
205.910904	1201.474976	1242.434326	1183.270874	-44.444313
206.292343	1117.280762	1201.474976	1199.199463	97.297302
206.673767	1267.465088	1233.332275	1140.035889	373.333435
207.055115	1176.444214	1237.883301	1201.474976	40.740776
207.436462	1251.536499	1199.199463	1199.199463	100.000000
207.817780	1151.413574	1224.230225	1140.035889	-15.625115
208.199051	1235.607788	1217.403687	1183.270874	287.500671
208.580307	1080.872437	1219.679199	1124.107300	31.147520
208.961517	1212.852539	1187.821899	1126.382813	345.455536
209.342712	1174.168701	1215.128052	1146.862427	-66.666763
209.723846	1246.985352	1190.097412	1203.750488	76.000053
210.104965	1167.342163	1144.586914	1176.444214	-39.999786
210.486069	1224.230225	1194.648438	1140.035889	284.615448
210.867111	1128.658325	1231.056763	1235.607788	104.444427
211.248123	1233.332275	1201.474976	1149.138062	264.285461
211.629120	1115.005249	1212.852539	1167.342163	53.488365
212.010071	1219.679199	1167.342163	1142.311401	147.826096
212.390991	1171.893188	1180.995239	1103.627563	-750.002686
212.771881	1126.382813	1187.821899	1135.484863	14.814756
213.152756	1208.301514	1265.189575	1167.342163	-71.999908
213.533569	1142.311401	1176.444214	1201.474976	173.333435
213.914368	1165.066650	1137.760376	1199.199463	-124.999886
214.295135	1215.128052	1174.168701	1126.382813	216.666611
214.675858	1128.658325	1151.413574	1137.760376	39.999786
215.056549	1203.750488	1160.515625	1130.933838	168.421143
215.437225	1124.107300	1199.199463	1146.862427	30.302931
215.817841	1212.852539	1237.883301	1178.719727	-136.363464
216.198441	1183.270874	1178.719727	1089.974487	2049.953125
216.579025	1183.270874	1242.434326	1224.230225	69.230835
216.959549	1206.026001	1199.199463	1151.413574	800.001770
217.340057	1140.035889	1258.363037	1128.658325	-9.615345
217.720535	1217.403687	1146.862427	1115.005249	145.161057
218.100967	1135.484863	1235.607788	1155.964600	20.454592
218.481369	1190.097412	1169.617676	1167.342163	111.111046
218.861740	1226.505737	1185.546387	1046.739624	438.889069
219.242065	1231.056763	1274.291626	1133.209351	-226.315994
219.622391	1212.852539	1178.719727	1096.801025	339.999847
220.002670	1162.791138	1201.474976	1117.280762	-117.647003
220.382919	1146.862427	1217.403687	1194.648438	67.741928
220.763123	1262.914063	1233.332275	1149.138062	384.615021
221.143295	1226.505737	1165.066650	1142.311401	137.037094
221.523453	1165.066650	1130.933838	1160.515625	13.333285
221.903549	1162.791138	1160.515625	1135.484863	1200.005371
222.283630	1089.974487	1221.954712	1180.995239	68.965446
222.663696	1237.883301	1192.372925	1144.586914	205.000259
223.043701	1155.964600	1235.607788	1135.484863	-25.714359
223.423676	1158.240112	1206.026001	1101.352051	-119.047829
223.803635	1178.719727	1206.026001	1174.168701	-16.666592
224.183548	1190.097412	1165.066650	1160.515625	118.181732
224.563431	1196.923950	1253.812012	1119.556274	-135.999847
224.943283	1194.648438	1167.342163	1135.484863	216.666595
225.323105	1178.719727	1228.781250	1224.230225	90.909134
225.702881	1215.128052	1210.577026	1151.413574	1400.002686
226.082642	1187.821899	1246.985352	1162.791138	-42.307812
226.462357	1203.750488	1226.505737	1201.474976	-9.999947
226.842041	1167.342163	1287.944824	1158.240112	-7.547139
227.221695	1233.332275	1233.332275	1126.382813	0.000000
227.601318	1151.413574	1233.332275	1242.434326	111.111076
227.980911	1183.270874	1283.393677	1199.199463	15.909052
228.360474	1237.883301	1206.026001	1130.933838	335.714142
228.739990	1167.342163	1242.434326	1176.444214	12.121173
229.119476	1137.760376	1226.505737	1133.209351	-5.128184
229.498932	1126.382813	1338.006226	1169.617676	20.430094
229.878372	1199.199463	1385.792114	1180.995239	-9.756131
230.257736	1190.097412	1472.261963	1146.862427	-15.322614
230.637115	1133.209351	1426.751587	1044.463989	-30.232571
231.016449	1190.097412	1372.139038	1158.240112	-17.500008
231.395737	1206.026001	1372.139038	1078.596802	-76.712341
231.774994	1199.199463	1299.322388	1142.311401	-56.818218
232.154221	1201.474976	1438.129150	1224.230225	9.615401
232.533417	1171.893188	1240.158813	1215.128052	63.333286
232.912582	1201.474976	1347.108276	1158.240112	-29.687485
233.291702	1206.026001	1322.077637	1190.097412	-13.725432
233.670792	1201.474976	1285.669312	1126.382813	-89.189095
234.049866	1196.923950	1267.465088	1089.974487	-151.612900
234.428894	1144.586914	1347.108276	1151.413574	3.370835
234.807892	1174.168701	1317.526489	1169.617676	-3.174592
235.186874	1219.679199	1422.200562	1083.147949	-67.415726
235.565781	1151.413574	1429.027100	1155.964600	1.639338
235.944687	1174.168701	1397.169800	1105.903076	-30.612238
236.323547	1135.484863	1347.108276	1124.107300	-5.376326
236.702377	1160.515625	1342.557251	1160.515625	0.000000
237.081177	1155.964600	1388.067749	1167.342163	4.901943
237.459946	1119.556274	1417.649414	1231.056763	37.404579
237.838669	1267.465088	1344.832764	1149.138062	-152.941162
238.217361	1149.138062	1342.557251	1096.801025	-27.058865
238.596039	1217.403687	1278.842651	1151.413574	-107.407593
238.974670	1160.515625	1315.250977	1165.066650	2.941167
239.353271	1208.301514	1383.516602	1208.301514	0.000000
239.731842	1149.138062	1422.200562	1112.729614	-13.333375
240.110367	1180.995239	1335.730713	1151.413574	-19.117571
240.488876	1187.821899	1422.200562	1199.199463	4.854351
240.867340	1201.474976	1390.343262	1203.750488	1.204815
241.245789	1219.679199	1438.129150	1196.923950	-10.416688
241.624176	1089.974487	1508.670288	1183.270874	22.282618
242.002548	1171.893188	1413.098389	1153.689087	-7.547143
242.380890	1155.964600	1542.803101	1151.413574	-1.176466
242.759186	1210.577026	1672.507813	1265.189575	11.822669
243.137451	1171.893188	1788.559326	1196.923950	4.059046
243.515686	1158.240112	1784.008301	1269.740601	17.818178
243.893890	1140.035889	1733.946899	1153.689087	2.298863
244.272049	1160.515625	1790.834839	1217.403687	9.025278
244.650192	1135.484863	1686.160889	1221.954712	15.702490
245.028290	1221.954712	1647.477051	1246.985352	5.882333
245.406357	1103.627563	1642.926025	1196.923950	17.299583
245.784393	1171.893188	1654.303589	1151.413574	-4.245268
246.162384	1208.301514	1570.109375	1171.893188	-10.062889
246.540359	1219.679199	1661.130127	1180.995239	-8.762913
246.918289	1167.342163	1722.569214	1210.577026	7.786880
247.296204	1130.933838	1909.161987	1210.577026	10.233912
247.674057	1208.301514	2143.540527	1212.852539	0.486616
248.051895	1183.270874	2275.520752	1267.465088	7.708329
248.429703	1244.709839	2387.021240	1210.577026	-2.988048
248.807465	1153.689087	2341.510986	1281.118164	10.727962
249.185196	1185.546387	2177.673340	1199.199463	1.376142
249.562897	1178.719727	2038.866699	1233.332275	6.349211
249.940567	1199.199463	1929.641602	1180.995239	-2.492220
250.318192	1174.168701	1925.090576	1235.607788	8.181822
250.695801	1203.750488	1790.834839	1183.270874	-3.488360
251.073349	1165.066650	1688.436401	1208.301514	8.260864
251.450882	1155.964600	1697.538574	1235.607788	14.705874
251.828400	1203.750488	1793.110352	1185.546387	-3.088792
252.205872	1201.474976	1749.875488	1167.342163	-6.224066
252.583313	1169.617676	1752.151001	1201.474976	5.468751
252.960693	1101.352051	1881.855713	1142.311401	5.247810
253.338074	1151.413574	1906.886475	1185.546387	4.518073
253.715408	1185.546387	1897.784302	1160.515625	-3.514382
254.092682	1180.995239	1836.345337	1224.230225	6.597235
254.469955	1180.995239	1774.906250	1117.280762	-10.727950
254.847198	1190.097412	1642.926025	1103.627563	-19.095491
255.224365	1165.066650	1706.640625	1142.311401	-4.201688
255.601563	1217.403687	1638.375000	1162.791138	-12.972986
255.978683	1192.372925	1672.507813	1244.709839	10.900460
256.355743	1140.035889	1636.099487	1142.311401	0.458714
256.732819	1183.270874	1713.467163	1194.648438	2.145915
257.109894	1206.026001	1729.395752	1221.954712	3.043491
257.486877	1158.240112	1722.569214	1219.679199	10.887102
257.863831	1208.301514	1772.630737	1190.097412	-3.225795
258.240753	1171.893188	1861.375977	1226.505737	7.920799
258.617645	1178.719727	1834.069824	1146.862427	-4.861112
258.994507	1112.729614	1961.498901	1208.301514	11.260056
259.371307	1171.893188	2070.723877	1190.097412	2.025323
259.748108	1128.658325	2202.704102	1278.842651	13.983047
260.124878	1112.729614	2380.194824	1242.434326	10.233395
260.501617	1169.617676	2614.573486	1240.158813	4.881889
260.878296	1162.791138	2728.349365	1297.046875	8.575583
261.254944	1194.648438	2960.452637	1260.638550	3.737114
261.631561	1135.484863	2883.084961	1249.260864	6.510414
262.008179	1117.280762	2639.604248	1274.291626	10.313896
262.384735	1174.168701	2341.510986	1233.332275	5.068229
262.761261	1124.107300	2189.051025	1253.812012	12.179490
263.137695	1105.903076	2050.244141	1180.995239	7.951805
263.514191	1174.168701	2070.723877	1224.230225	5.583764
263.890594	1190.097412	2107.132324	1165.066650	-2.729532
264.267029	1215.128052	1938.743774	1201.474976	-1.886786
264.643341	1192.372925	2041.142212	1206.026001	1.608573
265.019653	1185.546387	1922.815063	1185.546387	0.000000
265.395935	1169.617676	2007.009399	1301.597900	15.760870
265.772217	1212.852539	1986.529663	1208.301514	-0.588233
266.148407	1158.240112	1929.641602	1324.353149	21.533928
266.524597	1144.586914	2068.448486	1194.648438	5.418725
266.900726	1146.862427	2109.407715	1201.474976	5.673764
267.276855	1219.679199	2136.714111	1256.087524	3.970222
267.652924	1085.423462	2327.857666	1165.066650	6.410254
268.028992	1140.035889	2298.276123	1215.128052	6.483298
268.404999	1217.403687	2239.112549	1215.128052	-0.222728
268.781006	1194.648438	2223.183838	1215.128052	1.991143
269.156921	1174.168701	2268.694336	1174.168701	0.000000
269.532837	1231.056763	2266.418701	1235.607788	0.439559
269.908661	1203.750488	2273.245361	1315.250977	10.425529
270.284546	1160.515625	2264.143311	1267.465088	9.690720
270.660339	1146.862427	2316.480225	1262.914063	9.922185
271.036133	1183.270874	2227.734863	1265.189575	7.843133
271.411835	1187.821899	2250.489990	1196.923950	0.856528
271.787537	1180.995239	2489.419678	1344.832764	12.521741
272.163239	1130.933838	2744.278076	1322.077637	11.847676
272.538849	1160.515625	2924.044189	1249.260864	5.032254
272.914459	1108.178589	2703.318604	1244.709839	8.559201
273.290070	1208.301514	2666.910400	1294.771362	5.928241
273.665588	1190.097412	2571.338623	1231.056763	2.965402
274.041046	1142.311401	2594.093750	1231.056763	6.112856
274.416565	1226.505737	2464.388916	1272.016113	3.676468
274.791962	1167.342163	2525.828125	1231.056763	4.690118
275.167389	1124.107300	2402.949951	1278.842651	12.099640
275.542755	1203.750488	2482.593262	1251.536499	3.736660
275.918060	1178.719727	2514.450439	1221.954712	3.236804
276.293365	1155.964600	2532.654541	1235.607788	5.785122
276.668640	1158.240112	2377.919189	1217.403687	4.850749
277.043854	1087.698975	2421.154053	1269.740601	13.651875
277.419037	1215.128052	2503.072998	1326.628662	8.657249
277.794189	1194.648438	2564.511963	1265.189575	5.149501
278.169312	1183.270874	2625.950928	1292.495850	7.570977
278.544373	1115.005249	2539.481201	1251.536499	9.584665
278.919464	1251.536499	2491.695313	1231.056763	-1.651380
279.294464	1151.413574	2553.134277	1237.883301	6.168827
279.669464	1133.209351	2498.521729	1194.648438	4.500002
280.044403	1146.862427	2466.664551	1219.679199	5.517249
280.419312	1190.097412	2414.327637	1285.669312	7.806694
280.794189	1167.342163	2582.716064	1328.904175	11.414794
281.169037	1158.240112	2559.960938	1315.250977	11.201294
281.543854	1196.923950	2591.818115	1269.740601	5.220228
281.918671	1196.923950	2716.971924	1219.679199	1.497009
282.293365	1171.893188	2883.084961	1151.413574	-1.196804
282.668091	1206.026001	2880.809326	1274.291626	4.076087
283.042786	1192.372925	2949.074951	1303.873413	6.347148
283.417419	1192.372925	3076.504150	1340.281738	7.850239
283.792053	1217.403687	2949.074951	1331.179688	6.570300
284.166595	1221.954712	2773.859863	1312.975464	5.865098
284.541138	1126.382813	2801.166016	1299.322388	10.326087
284.915619	1199.199463	2835.298828	1335.730713	8.344924
285.290100	1101.352051	2880.809326	1365.312500	14.833761
285.664520	1167.342163	2949.074951	1374.414551	11.621966
286.038940	1160.515625	2953.625977	1228.781250	3.807107
286.413300	1167.342163	2983.207764	1290.220337	6.766920
286.787628	1135.484863	3242.617188	1351.659302	10.259177
287.161896	1190.097412	3342.739990	1235.607788	2.114163
287.536194	1217.403687	3315.433838	1283.393677	3.145331
287.910400	1137.760376	3183.453613	1303.873413	8.120134
288.284607	1190.097412	3008.238525	1285.669312	5.256572
288.658752	1142.311401	2924.044189	1278.842651	7.662835
289.032867	1165.066650	2796.614990	1242.434326	4.741979
289.406921	1137.760376	2976.381104	1285.669312	8.044559
289.781006	1067.219238	2867.156250	1258.363037	10.619472
290.154999	1155.964600	2930.870850	1312.975464	8.846149
290.529022	1162.791138	2971.830078	1344.832764	10.062892
290.902954	1149.138062	3178.902588	1383.516602	11.547080
291.276825	1185.546387	3162.973877	1394.894287	10.586882
291.650757	1133.209351	3376.872803	1388.067749	11.359029
292.024597	1201.474976	3269.923340	1269.740601	3.300330
292.398407	1174.168701	3208.484375	1253.812012	3.914993
292.772156	1185.546387	3060.575439	1276.567139	4.854365
293.145905	1199.199463	3081.055176	1294.771362	5.078598
293.519592	1146.862427	3003.687500	1338.006226	10.294120
293.893280	1167.342163	3001.411865	1303.873413	7.444169
294.266907	1203.750488	3094.708252	1381.241089	9.386281
294.640533	1128.658325	3188.004639	1335.730713	10.055249
295.014069	1128.658325	3365.495361	1392.618774	11.800612
295.387604	1144.586914	3379.148438	1444.955688	13.441956
295.761078	1196.923950	3558.914551	1347.108276	6.358379
296.134552	1176.444214	3502.026611	1342.557251	7.142857
296.507996	1212.852539	3476.995850	1360.761475	6.532667
296.881378	1242.434326	3476.995850	1338.006226	4.276987
297.254730	1160.515625	3647.659912	1356.210449	7.868254
297.628021	1221.954712	3957.130615	1378.965576	5.740430
298.001282	1194.648438	3866.109863	1433.578125	8.943782
298.374573	1176.444214	3963.957275	1397.169800	7.918369
298.747803	1108.178589	3727.302979	1374.414551	10.165074
299.121002	1155.964600	3709.098877	1367.588013	8.288770
299.494141	1162.791138	3536.159424	1410.822876	10.450623
299.867188	1115.005249	3602.149414	1415.373901	12.076850
300.240265	1176.444214	3483.822266	1317.526489	6.114398
300.613312	1124.107300	3333.637939	1299.322388	7.929968
300.986328	1149.138062	3308.607178	1385.792114	10.958899
301.359314	1206.026001	3374.597412	1347.108276	6.505771
301.732239	1215.128052	3283.576416	1353.934937	6.710677
302.105103	1169.617676	3231.239502	1356.210449	9.050776
302.477997	1183.270874	3281.301025	1335.730713	7.266809
302.850830	1140.035889	3322.260254	1256.087524	5.318043
303.223602	1133.209351	3210.759766	1310.699951	8.543263
303.596375	1196.923950	3108.361328	1349.383789	7.976188
303.969116	1087.698975	3065.126465	1287.944824	10.126584
304.341766	1196.923950	3026.442627	1276.567139	4.353232
304.714478	1135.484863	3140.218750	1322.077637	9.307608
305.087067	1196.923950	2987.758789	1306.148926	6.099109
305.459656	1201.474976	3233.515137	1363.036987	7.950729
305.832214	1208.301514	3128.841064	1347.108276	7.227488
306.204681	1171.893188	3147.045166	1358.485962	9.447008
306.577148	1185.546387	3069.677490	1356.210449	9.057972
306.949646	1174.168701	3124.290039	1212.852539	1.983663
307.322021	1185.546387	3074.228516	1301.597900	6.144576
307.694397	1210.577026	3149.320801	1278.842651	3.521127
308.066742	1144.586914	3165.249512	1383.516602	11.824324
308.439026	1133.209351	3156.147461	1324.353149	9.448821
308.811279	1130.933838	3342.739990	1299.322388	7.613169
309.183502	1176.444214	3376.872803	1324.353149	6.721824
309.555695	1117.280762	3429.209961	1317.526489	8.661412
309.927887	1192.372925	3445.138428	1338.006226	6.464645
310.299988	1171.893188	3422.383301	1276.567139	4.651162
310.672058	1194.648438	3495.199951	1326.628662	5.736895
311.044128	1210.577026	3524.781738	1306.148926	4.129795
311.416168	1212.852539	3497.475586	1324.353149	4.880482
311.788147	1185.546387	3470.169189	1340.281738	6.772906
312.160065	1258.363037	3506.577637	1299.322388	1.821861
312.531982	1233.332275	3506.577637	1338.006226	4.604604
312.903870	1194.648438	3379.148438	1246.985352	2.395830
313.275696	1199.199463	3345.015625	1303.873413	4.878048
313.647491	1144.586914	3356.393066	1388.067749	11.008236
314.019318	1165.066650	3276.750000	1301.597900	6.465517
314.391022	1237.883301	3299.505127	1410.822876	8.388521
314.762726	1158.240112	3331.362549	1242.434326	3.874343
315.134369	1194.648438	3604.425049	1267.465088	3.021718
315.505981	1160.515625	3572.567627	1367.588013	8.584906
315.877594	1171.893188	3690.894775	1369.863525	7.859080
316.249146	1115.005249	3558.914551	1242.434326	5.214149
316.620636	1196.923950	3322.260254	1278.842651	3.854388
316.992157	1140.035889	3345.015625	1287.944824	6.707950
317.363586	1185.546387	3190.280273	1272.016113	4.313277
317.735016	1206.026001	3201.657715	1283.393677	3.876851
318.106354	1206.026001	3156.147461	1281.118164	3.850640
318.477722	1167.342163	3231.239502	1219.679199	2.535835
318.849060	1162.791138	3240.341553	1276.567139	5.476450
319.220306	1183.270874	3251.719238	1299.322388	5.610559
319.591522	1215.128052	3404.179199	1242.434326	1.247402
319.962738	1178.719727	3399.628174	1269.740601	4.098362
320.333923	1126.382813	3347.291016	1324.353149	8.913936
320.705017	1212.852539	3292.678711	1269.740601	2.735232
321.076111	1190.097412	3440.587402	1294.771362	4.651163
321.447144	1269.740601	3256.270264	1249.260864	-1.030930
321.818176	1219.679199	3276.750000	1281.118164	2.986721
322.189178	1210.577026	3092.432861	1331.179688	6.408709
322.560120	1135.484863	3317.709229	1338.006226	9.280501
322.931030	1190.097412	3301.780762	1290.220337	4.741380
323.301910	1162.791138	3322.260254	1262.914063	4.636460
323.672729	1128.658325	3529.332764	1276.567139	6.161136
324.043549	1249.260864	3629.455566	1272.016113	0.956025
324.414337	1130.933838	3649.935303	1267.465088	5.420054
324.785095	1140.035889	3884.313965	1319.802124	6.550584
325.155792	1115.005249	3927.548828	1308.424438	6.877020
325.526428	1217.403687	3909.344727	1299.322388	3.043109
325.897034	1149.138062	3891.140625	1290.220337	5.145228
326.267670	1105.903076	3831.977051	1276.567139	6.260434
326.638184	1221.954712	3813.772949	1383.516602	6.233534
327.008728	1155.964600	3879.762939	1283.393677	4.678360
327.379211	1215.128052	3779.640137	1244.709839	1.153505
327.749634	1176.444214	3688.619141	1342.557251	6.612320
328.120026	1151.413574	3661.312988	1324.353149	6.890299
328.490417	1224.230225	3656.761963	1347.108276	5.051447
328.860748	1174.168701	3686.343750	1367.588013	7.699277
329.231079	1212.852539	3529.332764	1308.424438	4.125738
329.601318	1203.750488	3538.434814	1315.250977	4.775827
329.971558	1128.658325	3661.312988	1285.669312	6.199462
330.341736	1190.097412	3627.180176	1342.557251	6.255834
330.711914	1190.097412	3695.445801	1324.353149	5.358765
331.082062	1133.209351	3645.384277	1326.628662	7.699277
331.452148	1180.995239	3722.751953	1215.128052	1.342883
331.822174	1094.525513	3461.067139	1297.046875	8.557693
332.192200	1158.240112	3745.507324	1283.393677	4.837288
332.562134	1171.893188	3740.956299	1256.087524	3.277239
332.932129	1171.893188	3800.119629	1251.536499	3.030306
333.302063	1174.168701	3900.242676	1260.638550	3.171955
333.671906	1165.066650	3979.885986	1226.505737	2.182701
334.041718	1190.097412	4098.212891	1322.077637	4.538342
334.411499	1155.964600	4102.764160	1340.281738	6.254825
334.781281	1221.954712	4027.671875	1301.597900	2.838603
335.151001	1183.270874	4075.457764	1297.046875	3.933909
335.520721	1149.138062	4004.916504	1322.077637	6.055777
335.890350	1142.311401	3993.539063	1246.985352	3.671189
336.259979	1187.821899	4016.294189	1253.812012	2.333066
336.629547	1160.515625	3911.620361	1335.730713	6.368899
336.999084	1137.760376	4016.294189	1249.260864	3.873517
337.368622	1130.933838	4000.365479	1315.250977	6.423472
337.738098	1249.260864	3943.477539	1260.638550	0.422300
338.107513	1194.648438	3991.263428	1272.016113	2.766476
338.476898	1219.679199	3950.304199	1290.220337	2.583333
338.846252	1158.240112	4027.671875	1335.730713	6.185566
339.215576	1151.413574	4064.080078	1251.536499	3.437500
339.584869	1219.679199	4127.794922	1319.802124	3.442880
339.954132	1185.546387	3970.783691	1278.842651	3.349670
340.323334	1167.342163	3925.273438	1260.638550	3.382840
340.692505	1165.066650	3948.028564	1356.210449	6.868359
341.061646	1206.026001	3879.762939	1306.148926	3.744681
341.430786	1121.831787	4027.671875	1287.944824	5.716524
341.799896	1176.444214	3973.059326	1262.914063	3.091947
342.168915	1178.719727	4116.416992	1353.934937	5.964373
342.537903	1144.586914	4168.753906	1340.281738	6.471032
342.906830	1226.505737	4166.478516	1349.383789	4.179564
343.275757	1233.332275	4400.857422	1322.077637	2.801726
343.644684	1208.301514	4409.959473	1324.353149	3.624736
344.013550	1231.056763	4289.356934	1251.536499	0.669644
344.382355	1201.474976	4498.704590	1360.761475	4.830919
344.751129	1176.444214	4785.420410	1367.588013	5.296344
345.119873	1128.658325	4871.890137	1335.730713	5.531914
345.488586	1149.138062	4940.155762	1372.139038	5.882351
345.857269	1165.066650	5019.798828	1319.802124	4.014169
346.225891	1244.709839	5292.861328	1415.373901	4.215852
346.594482	1190.097412	5199.564941	1340.281738	3.745742
346.963043	1174.168701	5179.085449	1294.771362	3.011365
347.331543	1194.648438	5012.972168	1246.985352	1.370678
347.700043	1103.627563	4815.001953	1276.567139	4.659718
348.068512	1162.791138	4651.164551	1301.597900	3.979125
348.436951	1212.852539	4544.214844	1287.944824	2.254102
348.805328	1158.240112	4610.205078	1353.934937	5.669085
349.173645	1099.076538	4478.225098	1310.699951	6.262626
349.541931	1144.586914	4580.623535	1383.516602	6.953642
349.910217	1187.821899	4667.093262	1338.006226	4.316545
350.278473	1208.301514	4753.562988	1383.516602	4.942233
350.646667	1153.689087	4824.104004	1322.077637	4.587725
351.014801	1165.066650	4903.747559	1333.455200	4.503956
351.382935	1178.719727	4794.522461	1360.761475	5.034615
351.751007	1112.729614	4892.369629	1383.516602	7.164359
352.119049	1183.270874	4917.400391	1406.271851	5.971967
352.487091	1190.097412	4853.686035	1381.241089	5.217389
352.855072	1237.883301	5010.696777	1385.792114	3.920385
353.222992	1210.577026	5076.687012	1347.108276	3.531489
353.590881	1187.821899	5012.972168	1340.281738	3.985721
353.958740	1178.719727	5113.095215	1376.690063	5.031811
354.326599	1217.403687	5272.381836	1326.628662	2.693602
354.694397	1110.454102	5454.423340	1242.434326	3.038240
355.062134	1187.821899	5581.852539	1381.241089	4.401863
355.429840	1190.097412	5452.147949	1381.241089	4.484782
355.797516	1185.546387	5606.883301	1347.108276	3.654141
356.165192	1235.607788	5854.915039	1342.557251	2.315271
356.532776	1194.648438	5934.558105	1399.445313	4.320692
356.900360	1169.617676	6091.569336	1399.445313	4.669441
357.267883	1169.617676	6234.926758	1356.210449	3.683739
357.635376	1249.260864	6548.948730	1513.221313	4.980679
358.002808	1160.515625	6874.348145	1463.159912	5.296695
358.370270	1144.586914	7145.135254	1481.364014	5.612439
358.737640	1228.781250	7190.645508	1481.364014	4.236640
359.105011	1187.821899	7074.594238	1472.261963	4.831851
359.472321	1162.791138	6715.062012	1444.955688	5.081966
359.839569	1178.719727	6599.010254	1385.792114	3.820319
360.206787	1160.515625	6564.877441	1397.169800	4.378948
360.574005	1144.586914	6808.358398	1469.986450	5.745280
360.941193	1124.107300	7136.033203	1388.067749	4.390614
361.308319	1201.474976	7648.025391	1479.088501	4.306389
361.675415	1167.342163	8053.068359	1442.680176	3.998678
362.042450	1174.168701	8631.050781	1495.017212	4.302717
362.409424	1171.893188	9054.296875	1595.140137	5.369516
362.776428	1174.168701	9184.001953	1604.242188	5.369319
363.143402	1196.923950	8726.622070	1495.017212	3.958900
363.510284	1206.026001	8291.998047	1447.231201	3.403982
363.877136	1144.586914	7534.249512	1497.292725	5.519944
364.243988	1142.311401	7004.053223	1435.853638	5.007765
364.610779	1244.709839	6760.572266	1383.516602	2.516502
364.977539	1208.301514	6587.632813	1463.159912	4.737734
365.344269	1176.444214	6314.570313	1463.159912	5.580161
365.710938	1128.658325	6294.090332	1390.343262	5.066080
366.077576	1151.413574	6257.682129	1390.343262	4.679144
366.444183	1231.056763	6191.691895	1353.934937	2.477065
366.810760	1142.311401	6148.457031	1438.129150	5.909092
367.177277	1246.985352	6153.008301	1388.067749	2.875698
367.543823	1171.893188	6050.609863	1390.343262	4.477613
367.910248	1212.852539	6209.896484	1415.373901	4.052824
368.276642	1176.444214	6039.232422	1426.751587	5.147405
368.643036	1199.199463	5957.313477	1367.588013	3.538977
369.009399	1149.138062	5955.038086	1399.445313	5.208333
369.375671	1158.240112	5852.639648	1408.547363	5.332040
369.741974	1180.995239	5729.761230	1417.649414	5.202601
370.108215	1162.791138	5873.119141	1324.353149	3.429952
370.474396	1203.750488	5823.057617	1388.067749	3.990149
370.840546	1180.995239	5866.292480	1504.119263	6.896553
371.206665	1160.515625	5993.721680	1501.843750	7.062147
371.572784	1169.617676	6121.150879	1431.302612	5.284927
371.938843	1140.035889	6298.641602	1394.894287	4.940452
372.304840	1121.831787	6303.192383	1499.568237	7.290295
372.670807	1180.995239	6269.059570	1438.129150	5.053668
373.036713	1167.342163	6200.793945	1474.537476	6.103075
373.402649	1165.066650	6107.498047	1392.618774	4.604052
373.768524	1155.964600	6225.824707	1358.485962	3.994614
374.134308	1169.617676	6121.150879	1424.476074	5.147060
374.500122	1140.035889	6250.855469	1367.588013	4.452361
374.865875	1135.484863	6289.539551	1479.088501	6.666667
375.231567	1262.914063	6139.354980	1440.404663	3.639757
375.597260	1140.035889	6350.978516	1508.670288	7.074237
375.962891	1171.893188	6576.254883	1447.231201	5.094737
376.328461	1160.515625	6803.807129	1417.649414	4.556450
376.694031	1167.342163	6926.685547	1535.976563	6.400632
377.059540	1201.474976	7183.819336	1495.017212	4.906809
377.425049	1121.831787	7468.259277	1483.639526	5.700967
377.790497	1246.985352	7538.800293	1520.047852	4.339964
378.155945	1142.311401	8043.965820	1601.966675	6.660074
378.521301	1153.689087	7784.556641	1517.772339	5.490733
378.886597	1219.679199	7636.647949	1465.435425	3.829787
379.251892	1194.648438	7365.860840	1579.211426	6.231563
379.617157	1149.138062	6949.440430	1531.425537	6.590820
379.982422	1135.484863	6872.072754	1485.915039	6.108686
380.347595	1210.577026	6844.766602	1476.812988	4.725364
380.712738	1180.995239	6685.479980	1592.864502	7.482430
381.077820	1174.168701	6844.766602	1599.691162	7.504014
381.442902	1210.577026	6944.889648	1524.598877	5.476190
381.807953	1135.484863	6808.358398	1517.772339	6.738868
382.172974	1169.617676	6883.450195	1501.843750	5.814417
382.537933	1165.066650	6669.551270	1558.731689	7.151715
382.902832	1240.158813	6812.909180	1510.945801	4.859127
383.267700	1185.546387	6851.593262	1592.864502	7.188753
383.632538	1199.199463	6856.144043	1565.558350	6.476268
383.997345	1180.995239	7101.900391	1652.028076	7.955419
384.362152	1155.964600	7172.441406	1567.833862	6.845689
384.726898	1219.679199	7402.269043	1579.211426	5.815237
385.091553	1174.168701	7399.993652	1683.885376	8.187135
385.456238	1158.240112	7568.382324	1672.507813	8.022719
385.820862	1153.689087	7570.657715	1683.885376	8.262410
386.185425	1167.342163	7477.361328	1695.262939	8.366389
386.549988	1231.056763	7440.953125	1665.681274	6.998901
386.914490	1199.199463	7636.647949	1720.293701	8.094733
387.278961	1215.128052	7877.853027	1670.232300	6.830602
387.643372	1133.209351	7773.179199	1677.058838	8.190541
388.007782	1137.760376	7925.639160	1718.018188	8.548441
388.372101	1158.240112	7836.893555	1788.559326	9.437819
388.736450	1194.648438	7855.097656	1777.181763	8.746157
389.100739	1121.831787	7704.913574	1786.283813	10.093328
389.464966	1201.474976	7723.117676	1711.191650	7.815772
389.829163	1171.893188	7745.873047	1765.804199	9.034268
390.193329	1171.893188	7693.535645	1736.222412	8.653176
390.557495	1085.423462	7814.138672	1711.191650	9.299965
390.921570	1158.240112	7759.525879	1852.273926	10.513616
391.285614	1183.270874	7914.261230	1831.794189	9.634887
391.649597	1155.964600	8460.386719	1895.508789	10.124610
392.013550	1119.556274	8910.939453	1927.366089	10.367990
392.377502	1219.679199	9049.746094	1947.845825	9.299622
392.741455	1171.893188	8844.949219	1934.192627	9.934756
393.105316	1105.903076	8892.735352	1900.059814	10.198714
393.469086	1187.821899	8867.704102	1959.223389	10.044444
393.832886	1165.066650	8521.825195	1925.090576	10.330961
394.196655	1171.893188	8703.867188	2018.386963	11.238670
394.560333	1203.750488	8867.704102	2011.560425	10.540381
394.924042	1140.035889	8935.969727	2050.244141	11.675424
395.287659	1160.515625	8979.205078	2004.733887	10.797440
395.651245	1206.026001	8983.755859	2113.958740	11.673492
396.014771	1153.689087	8685.663086	2050.244141	11.903321
396.378296	1210.577026	8285.170898	2025.213501	11.514957
396.741791	1219.679199	8271.518555	2054.795166	11.842526
397.105255	1217.403687	8125.884766	2002.458252	11.363635
397.468628	1169.617676	7859.648926	1984.254150	12.176871
397.832001	1142.311401	7736.770508	2029.764526	13.457558
398.195313	1217.403687	8194.150391	2036.591064	11.741682
398.558624	1210.577026	7984.802734	2070.723877	12.697346
398.921844	1194.648438	8012.108887	2032.040039	12.283043
399.285095	1192.372925	7907.434570	2116.234375	13.758049
399.648254	1226.505737	8050.792480	2070.723877	12.370790
400.011383	1221.954712	8251.038086	2113.958740	12.690189
400.374451	1267.465088	8078.098633	2100.305664	12.228533
400.737549	1160.515625	8198.701172	2079.825928	13.061751
401.100586	1140.035889	8112.231445	2063.897461	13.250655
401.463562	1212.852539	7893.781738	2132.163086	13.760220
401.826508	1144.586914	8428.529297	2248.214600	15.151516
402.189392	1180.995239	7882.404297	2150.367188	14.465196
402.552246	1206.026001	8200.976563	2266.418701	15.159402
402.915070	1158.240112	8355.711914	2179.948975	14.195386
403.277893	1208.301514	8508.171875	2368.817139	15.897758
403.640656	1176.444214	8501.345703	2195.877686	13.917368
404.003326	1144.586914	8753.928711	2314.204590	15.370812
404.366028	1096.801025	9033.817383	2191.326416	13.790136
404.728699	1158.240112	9172.624023	2364.266113	15.048268
405.091248	1190.097412	9427.482422	2466.664551	15.497238
405.453857	1203.750488	9372.870117	2468.940186	15.487467
405.816345	1130.933838	9479.819336	2582.716064	17.388933
406.178833	1160.515625	9204.481445	2521.277100	16.916550
406.541260	1215.128052	9536.708008	2421.154053	14.492752
406.903687	1192.372925	9120.287109	2525.828125	16.819748
407.266052	1306.148926	8826.745117	2414.327637	14.735250
407.628387	1240.158813	8979.205078	2462.113525	15.789474
407.990662	1208.301514	8954.174805	2418.878662	15.628673
408.352905	1167.342163	8940.521484	2402.949951	15.895784
408.715118	1135.484863	8872.255859	2475.766602	17.323528
409.077332	1206.026001	8869.980469	2475.766602	16.567696
409.439484	1176.444214	8776.683594	2523.552490	17.724550
409.801575	1224.230225	8708.417969	2523.552490	17.360899
410.163605	1217.403687	8935.969727	2569.062988	17.511793
410.525635	1212.852539	9388.798828	2594.093750	16.893961
410.887604	1224.230225	9591.320313	2607.746826	16.535219
411.249573	1260.638550	9466.166992	2646.430664	16.888517
411.611481	1119.556274	9372.870117	2641.879639	18.444996
411.973328	1153.689087	9379.696289	2687.390137	18.644539
412.335144	1203.750488	9427.482422	2610.022461	17.100166
412.696930	1201.474976	9277.297852	2603.195801	17.357004
413.058685	1237.883301	9143.042969	2528.103516	16.321241
413.420410	1133.209351	9193.104492	2650.981689	18.831167
413.782104	1185.546387	9181.726563	2644.155273	18.241322
414.143707	1162.791138	9186.277344	2603.195801	17.952354
414.505310	1192.372925	9270.471680	2648.706299	18.028170
414.866852	1203.750488	9320.533203	2653.257324	17.858145
415.228394	1135.484863	9488.921875	2600.920166	17.542902
415.589874	1142.311401	9620.902344	2748.829102	18.947933
415.951324	1224.230225	9807.495117	2771.584229	18.027569
416.312683	1187.821899	10253.497070	2767.033203	17.419678
416.674072	1228.781250	10267.149414	2885.360352	18.328299
417.035370	1121.831787	10644.886719	2833.023438	17.968937
417.396667	1151.413574	10688.121094	2928.595215	18.635170
417.757935	1140.035889	10669.916992	2769.308838	17.096468
418.119141	1203.750488	11222.868164	2985.483398	17.783333
418.480286	1196.923950	11498.207031	2776.135498	15.330241
418.841400	1137.760376	12032.954102	2910.391113	16.269842
419.202484	1171.893188	12369.731445	3210.759766	18.207682
419.563568	1194.648438	12952.264648	3128.841064	16.450550
419.924591	1130.933838	13537.073242	3347.291016	17.865004
420.285553	1199.199463	13839.717773	3474.720215	18.001799
420.646484	1158.240112	14913.763672	3583.945313	17.634407
421.007355	1142.311401	14695.313477	3508.853027	17.461382
421.368225	1140.035889	16028.768555	3768.262451	17.652454
421.729065	1140.035889	16040.146484	3868.385254	18.310934
422.089874	1112.729614	16411.056641	3884.313965	18.116913
422.450592	1199.199463	16652.261719	3957.130615	17.847149
422.811279	1171.893188	16281.351563	3970.783691	18.524097
423.171936	1183.270874	16040.146484	4016.294189	19.068769
423.532593	1133.209351	16067.452148	3979.885986	19.061407
423.893127	1167.342163	16390.576172	4157.376465	19.641254
424.253723	1149.138062	16395.126953	4134.621094	19.582087
424.614197	1174.168701	16490.699219	4143.723145	19.387905
424.974670	1217.403687	17150.599609	4282.530273	19.237360
425.335052	1162.791138	17489.652344	4419.061523	19.944252
425.695496	1155.964600	16431.535156	4196.060547	19.901686
426.055817	1180.995239	16540.759766	4341.693848	20.577782
426.416168	1140.035889	16602.199219	4450.918457	21.412804
426.776398	1162.791138	15680.614258	4216.540039	21.034483
427.136627	1194.648438	14765.854492	4082.284424	21.277666
427.496826	1178.719727	14777.232422	4064.080078	21.218204
427.856995	1178.719727	14313.025391	3879.762939	20.564796
428.217102	1240.158813	13534.797852	3929.824463	21.876736
428.577179	1208.301514	13518.869141	3843.354736	21.404808
428.937195	1135.484863	13380.062500	3738.680664	21.259987
429.297180	1169.617676	12576.803711	3586.220703	21.184919
429.657135	1160.515625	12686.028320	3677.241699	21.836132
430.017059	1121.831787	13254.908203	3615.802490	20.555140
430.376984	1237.883301	12588.180664	3586.220703	20.689655
430.736786	1158.240112	12306.016602	3492.924316	20.943047
431.096588	1208.301514	12608.661133	3479.271240	19.920158
431.456360	1130.933838	12588.180664	3599.874023	21.549158
431.816071	1219.679199	12492.609375	3527.057129	20.468307
432.175781	1185.546387	12321.945313	3495.199951	20.739681
432.535400	1146.862427	12595.007813	3440.587402	20.035778
432.895020	1169.617676	12201.342773	3445.138428	20.627062
433.254578	1185.546387	12508.538086	3631.731201	21.603697
433.614105	1180.995239	12647.344727	3731.854004	22.246477
433.973602	1194.648438	13111.550781	3804.670898	21.901854
434.333038	1151.413574	13075.142578	3868.385254	22.786259
434.692444	1085.423462	13068.316406	3952.579590	23.927080
435.051819	1137.760376	13480.185547	3913.895752	22.492624
435.411133	1256.087524	13234.428711	4000.365479	22.910334
435.770416	1178.719727	12806.630859	3879.762939	23.228964
436.129669	1096.801025	13234.428711	4171.029785	25.328085
436.488861	1165.066650	12790.702148	4075.457764	25.034254
436.848083	1124.107300	12836.212891	4014.018799	24.674570
437.207184	1185.546387	12861.243164	4141.447754	25.316702
437.566254	1258.363037	13216.224609	4230.193359	24.852524
437.925293	1246.985352	13220.775391	4234.744141	24.952490
438.284363	1203.750488	13512.042969	4303.009766	25.180252
438.643311	1237.883301	13523.419922	4491.877930	26.486385
439.002258	1258.363037	13355.031250	4284.805664	25.018812
439.361145	1171.893188	14201.525391	4698.950684	27.069511
439.719971	1146.862427	14299.373047	4744.460938	27.352942
440.078827	1215.128052	14852.324219	4958.359863	27.448692
440.437592	1165.066650	15132.212891	5035.727539	27.712610
440.796295	1158.240112	15464.439453	5220.044922	28.391920
441.155029	1278.842651	15874.033203	5440.770020	28.515745
441.513672	1201.474976	16463.392578	5666.046875	29.253019
441.872253	1224.230225	16502.076172	5631.914063	28.850164
442.230865	1201.474976	16158.473633	5518.138184	28.860489
442.589386	1196.923950	15976.431641	5588.679199	29.715166
442.947876	1155.964600	16110.687500	5672.873535	30.203897
443.306335	1115.005249	15487.194336	5424.841797	29.987333
443.664764	1155.964600	15179.999023	5381.606934	30.131433
444.023102	1162.791138	15334.734375	5447.596680	30.234426
444.381500	1108.178589	15220.958984	5354.300293	30.087067
444.739777	1174.168701	15216.407227	5440.770020	30.384056
445.098022	1108.178589	15503.123047	5531.791016	30.730318
445.456238	1176.444214	15446.235352	5554.546387	30.680912
445.814423	1183.270874	15723.848633	5738.863281	31.330200
446.172577	1171.893188	16761.486328	6016.477051	31.075758
446.530701	1217.403687	16741.005859	5857.190430	29.888594
446.888733	1135.484863	17293.958984	6143.906250	30.995632
447.246765	1158.240112	18106.318359	6426.070801	31.082170
447.604736	1130.933838	17489.652344	6335.049805	31.812492
447.962677	1171.893188	17537.439453	6262.233398	31.104006
448.320587	1190.097412	17676.246094	6478.407715	32.077297
448.678436	1165.066650	17619.357422	6303.192383	31.226664
449.036255	1142.311401	17341.744141	6344.151855	32.111252
449.394043	1258.363037	16317.759766	5957.313477	31.202780
449.751770	1146.862427	16360.994141	6143.906250	32.844753
450.109467	1119.556274	16067.452148	5886.772461	31.892223
450.467163	1210.577026	15967.329102	5879.945801	31.642252
450.824768	1167.342163	15776.185547	5866.292480	32.165108
451.182343	1137.760376	15737.501953	5825.333008	32.107231
451.539886	1196.923950	14970.651367	5511.311523	31.323313
451.897369	1219.679199	15352.938477	5602.332031	31.009497
452.254822	1183.270874	15321.082031	5556.821777	30.935133
452.612274	1142.311401	15389.347656	5647.842773	31.624340
452.969635	1130.933838	15209.581055	5534.066406	31.275255
453.326965	1206.026001	15088.978516	5534.066406	31.175217
453.684326	1149.138062	14970.651367	5531.791016	31.708921
454.041534	1121.831787	14804.538086	5584.127930	32.612671
454.398773	1146.862427	14479.138672	5270.105957	30.926779
454.755951	1217.403687	14308.474609	5256.453125	30.853466
455.113098	1217.403687	13484.736328	5147.228027	32.034870
455.470215	1217.403687	13907.983398	5163.156738	31.091982
455.827240	1224.230225	13741.870117	5060.758301	30.648973
456.184265	1233.332275	13871.575195	5129.023926	30.824629
456.541260	1190.097412	13600.788086	5249.626465	32.709938
456.898193	1133.209351	13475.633789	5049.380859	31.729351
457.255096	1246.985352	13771.452148	5113.095215	30.868458
457.611969	1119.556274	13582.583984	5124.472656	32.134380
457.968781	1180.995239	14010.381836	5131.299316	30.791059
458.325531	1108.178589	14055.891602	5124.472656	31.019331
458.682312	1208.301514	14720.343750	5356.576172	30.700573
459.039001	1158.240112	15466.714844	5536.342285	30.597965
459.395630	1133.209351	16106.136719	5795.751465	31.139814
459.752289	1212.852539	17375.876953	6059.711914	29.987329
460.108856	1192.372925	18224.646484	6530.744629	31.342684
460.465363	1064.943726	19285.039063	6803.807129	31.497438
460.821899	1190.097412	19087.068359	6564.877441	30.031788
461.178345	1210.577026	18875.445313	6432.897461	29.563313
461.534760	1185.546387	18288.361328	6548.948730	31.359764
461.891144	1133.209351	17541.990234	6134.804199	30.481209
462.247467	1194.648438	16738.730469	5884.496582	30.171278
462.603760	1144.586914	16445.189453	5866.292480	30.859606
462.960052	1169.617676	15714.747070	5575.025879	30.287859
463.316254	1208.301514	15223.234375	5347.474121	29.534019
463.672424	1196.923950	14802.262695	5420.290527	31.041981
464.028564	1192.372925	14435.904297	5167.707520	30.017179
464.384644	1144.586914	14570.160156	5197.289551	30.186440
464.740723	1146.862427	14699.864258	5154.054688	29.566826
465.096741	1149.138062	14308.474609	5119.921875	30.174648
465.452698	1192.372925	14203.800781	5026.625488	29.468346
465.808655	1180.995239	14576.986328	5038.002930	28.792253
466.164520	1126.382813	14367.638672	5185.912109	30.658190
466.520355	1201.474976	15050.294922	5220.044922	29.017416
466.876190	1167.342163	15191.376953	5331.545410	29.693331
467.231964	1246.985352	14979.753906	5245.075684	29.113506
467.587677	1160.515625	15769.359375	5301.963379	28.348909
467.943390	1124.107300	16033.319336	5490.831543	29.288765
468.299011	1162.791138	15257.367188	5331.545410	29.577011
468.654633	1146.862427	15202.754883	5115.370605	28.233770
469.010223	1190.097412	15195.927734	5304.238770	29.374493
469.365723	1171.893188	14793.161133	5113.095215	28.934181
469.721191	1221.954712	14895.559570	5147.228027	28.706940
470.076660	1215.128052	14287.995117	4917.400391	28.320278
470.432068	1217.403687	14611.119141	4987.941406	28.151543
470.787445	1244.709839	14272.066406	4846.859375	27.650656
471.142792	1158.240112	14281.168945	4937.880371	28.801804
471.498016	1144.586914	14488.241211	5026.625488	29.092770
471.853271	1224.230225	14627.047852	5179.085449	29.507641
472.208496	1233.332275	14718.068359	4908.298340	27.252785
472.563660	1185.546387	14681.660156	4849.134766	27.145508
472.918762	1199.199463	15248.264648	4967.461914	26.822157
473.273865	1176.444214	15484.918945	5049.380859	27.067430
473.628876	1187.821899	15639.654297	5144.952637	27.381517
473.983917	1228.781250	15748.879883	5115.370605	26.766962
474.338837	1199.199463	15801.216797	5115.370605	26.819384
474.693787	1117.280762	15789.838867	5081.237793	27.016127
475.048645	1190.097412	15250.540039	4906.022949	26.428226
475.403503	1110.454102	16067.452148	5092.615723	26.624069
475.758270	1178.719727	16017.390625	5053.931641	26.115627
476.113037	1215.128052	15985.533203	5083.513672	26.190113
476.467773	1203.750488	16144.820313	5028.900879	25.601582
476.822418	1176.444214	16893.466797	5379.331055	26.740986
477.177063	1183.270874	16745.556641	5249.626465	26.129551
477.531647	1253.812012	17255.273438	5320.167480	25.412401
477.886200	1194.648438	17530.611328	5301.963379	25.142778
478.240723	1208.301514	18006.195313	5499.933594	25.548630
478.595184	1203.750488	18176.859375	5433.943848	24.922913
478.949585	1194.648438	18320.218750	5661.495605	26.082911
479.303986	1212.852539	18559.148438	5481.729492	24.609732
479.658325	1219.679199	18579.626953	5741.139160	26.045355
480.012634	1142.311401	19077.966797	5470.352051	24.130930
480.366913	1155.964600	19571.753906	5534.066406	23.773630
480.721130	1194.648438	19744.693359	5697.904297	24.276253
481.075317	1176.444214	20534.298828	6011.925781	24.979427
481.429474	1165.066650	21512.773438	6143.906250	24.468800
481.783569	1158.240112	22523.105469	6216.722656	23.676641
482.137604	1135.484863	23280.853516	6455.652344	24.023838
482.491669	1226.505737	25210.494141	6967.644531	23.937382
482.845612	1165.066650	27838.720703	7602.515137	24.134108
483.199554	1196.923950	31686.626953	8178.221680	22.897232
483.553436	1196.923950	37134.222656	9550.360352	23.244476
483.907318	1228.781250	43544.367188	11140.950195	23.424393
484.261139	1196.923950	49763.363281	12492.609375	23.258213
484.614899	1149.138062	52830.765625	13382.337891	23.670307
484.968628	1130.933838	52482.613281	13395.991211	23.884434
485.322357	1165.066650	49918.101563	12645.069336	23.547258
485.675964	1183.270874	46502.542969	11580.125000	22.941353
486.029572	1149.138062	42233.667969	10442.365234	22.619772
486.383148	1203.750488	39669.152344	9693.718750	22.071701
486.736694	1153.689087	37177.457031	9161.247070	22.228540
487.090149	1160.515625	37480.101563	8879.082031	21.251802
487.443604	1256.087524	38369.832031	9336.461914	21.771919
487.796997	1194.648438	39826.164063	9589.044922	21.729401
488.150360	1235.607788	41298.425781	9850.729492	21.504036
488.503693	1190.097412	42256.421875	10005.464844	21.466171
488.856964	1185.546387	41266.570313	9616.350586	21.034405
489.210175	1149.138062	39098.000000	9106.633789	20.968996
489.563416	1167.342163	37081.886719	8619.672852	20.750175
489.916565	1174.168701	34701.691406	8367.089844	21.453779
490.269653	1199.199463	32696.958984	7525.147461	20.083803
490.622772	1155.964600	31570.576172	7390.891602	20.499775
490.975769	1240.158813	31952.863281	7085.971680	19.033859
491.328735	1215.128052	32678.753906	7511.494141	20.011572
491.681732	1112.729614	34417.253906	7793.658691	20.060125
492.034607	1167.342163	36895.292969	8098.578613	19.400040
492.387482	1121.831787	37532.441406	8239.661133	19.548779
492.740326	1162.791138	36861.160156	8212.354492	19.747580
493.093079	1169.617676	35413.929688	7711.740234	19.104259
493.445862	1267.465088	32062.087891	6990.399902	18.584200
493.798523	1169.617676	29852.556641	6594.459473	18.913130
494.151215	1192.372925	27474.638672	6084.742676	18.614717
494.503815	1135.484863	25519.964844	5848.088379	19.326241
494.856384	1185.546387	23724.580078	5352.024902	18.485613
495.208923	1117.280762	22796.167969	5081.237793	18.284874
495.561432	1101.352051	22386.574219	5053.931641	18.569595
495.913879	1144.586914	22047.521484	4928.777832	18.103636
496.266296	1137.760376	22159.021484	4860.512207	17.709459
496.618683	1142.311401	22281.900391	4892.369629	17.739502
496.970978	1146.862427	22994.138672	4942.431152	17.373190
497.323273	1165.066650	22620.953125	4976.563965	17.764343
497.675507	1240.158813	22866.708984	4999.319336	17.382154
498.027710	1233.332275	22857.607422	4940.155762	17.141954
498.379852	1135.484863	22743.830078	4894.645020	17.396797
498.731995	1219.679199	22691.494141	4842.308105	16.871555
499.084076	1146.862427	22184.052734	4621.582520	16.517036
499.436096	1158.240112	22045.246094	4689.848145	16.908157
499.788086	1221.954712	21590.140625	4444.092285	15.819464
500.140106	1262.914063	21180.546875	4280.254395	15.149091
500.491943	1199.199463	20666.279297	4316.663086	16.014029
500.843842	1146.862427	20434.177734	4214.264648	15.903729
501.195679	1228.781250	19922.185547	4043.600586	15.057821
501.547455	1178.719727	19580.857422	4141.447754	16.099913
501.899231	1151.413574	19380.611328	4048.151611	15.890651
502.250885	1149.138062	19155.333984	3877.487549	15.152283
502.602600	1178.719727	19191.742188	3897.967041	15.096007
502.954193	1219.679199	19139.406250	3927.548828	15.111110
503.305786	1137.760376	19159.884766	4011.743164	15.946970
503.657379	1183.270874	19027.904297	3925.273438	15.365978
504.008820	1176.444214	19476.181641	3793.293213	14.299927
504.360291	1212.852539	19430.671875	3936.650879	14.951285
504.711700	1246.985352	19756.072266	3820.599365	13.904598
505.063080	1221.954712	19765.173828	3768.262451	13.731746
505.414368	1137.760376	19478.458984	3791.017578	14.466500
505.765656	1199.199463	19423.845703	3836.528076	14.471220
506.116943	1199.199463	19564.927734	3659.037354	13.393631
506.468109	1144.586914	19216.773438	3586.220703	13.510449
506.819305	1160.515625	19278.212891	3686.343750	13.941220
507.170410	1210.577026	19244.080078	3674.966064	13.665615
507.521484	1178.719727	19264.558594	3654.486328	13.688978
507.872559	1149.138062	19182.640625	3599.874023	13.589906
508.223480	1124.107300	19346.478516	3636.282227	13.786213
508.574493	1199.199463	19619.541016	3661.312988	13.366275
508.925385	1076.321289	20045.062500	3492.924316	12.739923
509.276245	1130.933838	20349.982422	3740.956299	13.580394
509.627045	1155.964600	20543.402344	3681.792725	13.028169
509.977814	1187.821899	21037.189453	3556.638916	11.933967
510.328613	1165.066650	20773.228516	3679.517090	12.823488
510.679260	1135.484863	20950.720703	3684.068115	12.861735
511.029999	1185.546387	21098.628906	3636.282227	12.307165
511.380585	1233.332275	21153.242188	3549.812500	11.628969
511.731140	1199.199463	21294.324219	3722.751953	12.558033
512.081726	1171.893188	21660.681641	3595.322754	11.828076
512.432129	1176.444214	21885.958984	3729.578613	12.328315
512.782654	1144.586914	22195.429688	3572.567627	11.533888
513.133057	1158.240112	21965.601563	3606.700439	11.767280
513.483398	1158.240112	22263.695313	3504.302002	11.115904
513.833801	1219.679199	22015.664063	3479.271240	10.865521
514.183960	1133.209351	21537.804688	3476.995850	11.486563
514.534302	1190.097412	21455.884766	3397.352539	10.891534
514.884460	1130.933838	21278.394531	3429.209961	11.407274
515.234619	1217.403687	21201.027344	3335.913574	10.601230
515.584717	1146.862427	21419.476563	3210.759766	10.180717
515.934753	1121.831787	21417.201172	3208.484375	10.281423
516.284851	1115.005249	21556.007813	3297.229736	10.675722
516.634766	1165.066650	21881.408203	3331.362549	10.456943
516.984741	1196.923950	21751.703125	3288.127441	10.173807
517.334595	1153.689087	22805.269531	3219.861816	9.542827
517.684448	1160.515625	23417.384766	3429.209961	10.193233
518.034363	1162.791138	24336.695313	3420.107666	9.740768
518.384094	1246.985352	25142.228516	3406.454590	9.037235
518.733826	1183.270874	26377.837891	3463.342773	9.049855
519.083496	1146.862427	27121.931641	3604.425049	9.461236
519.433167	1146.862427	27256.187500	3668.139648	9.656616
519.782776	1203.750488	27085.523438	3474.720215	8.774398
520.132324	1171.893188	26361.908203	3529.332764	9.358626
520.481873	1180.995239	26214.000000	3454.240479	9.080992
520.831299	1176.444214	25224.148438	3263.096924	8.677139
521.180786	1192.372925	24675.748047	3272.198975	8.856589
521.530151	1208.301514	24534.666016	3133.392090	8.252852
521.879517	1192.372925	24373.103516	3226.688477	8.775890
522.228882	1221.954712	23845.181641	3044.646729	8.056728
522.578064	1153.689087	23581.222656	3067.402100	8.532873
522.927307	1167.342163	23904.345703	2949.074951	7.836269
523.276489	1224.230225	24136.449219	3017.340576	7.826001
523.625610	1146.862427	24090.939453	2960.452637	7.904394
523.974792	1208.301514	24700.777344	2930.870850	7.332430
524.323792	1196.923950	24976.117188	3051.473389	7.799043
524.672852	1221.954712	25390.261719	2958.177002	7.183881
525.021790	1206.026001	26350.531250	3124.290039	7.628959
525.370728	1149.138062	27674.884766	3169.800537	7.617741
525.719604	1149.138062	29035.644531	3172.075928	7.254182
526.068420	1201.474976	30826.480469	3267.647949	6.974422
526.417297	1151.413574	31848.189453	3456.516113	7.509266
526.765991	1105.903076	33004.152344	3431.485352	7.290627
527.114746	1185.546387	33698.187500	3379.148438	6.746921
527.463379	1155.964600	35099.910156	3572.567627	7.119393
527.812012	1183.270874	37138.773438	3577.118652	6.657806
528.160706	1112.729614	39696.460938	3852.456787	7.100731
528.509155	1158.240112	44566.074219	4086.835449	6.746697
528.857727	1171.893188	49729.230469	4303.009766	6.448287
529.206177	1219.679199	52525.847656	4478.225098	6.351178
529.554565	1124.107300	53058.320313	4582.898926	6.659947
529.902893	1176.444214	51515.515625	4414.510254	6.432510
530.251221	1265.189575	48841.777344	4171.029785	6.107711
530.599548	1226.505737	45178.191406	3948.028564	6.192079
530.947876	1190.097412	41475.917969	3729.578613	6.303660
531.296021	1176.444214	38005.750000	3390.525879	6.011739
531.644165	1155.964600	36187.605469	3228.964111	5.917506
531.992249	1219.679199	34369.464844	2996.860840	5.361065
532.340454	1194.648438	32985.949219	3056.024414	5.854985
532.688354	1206.026001	33568.484375	2933.146240	5.336802
533.036438	1176.444214	33825.617188	3049.197754	5.735991
533.384338	1151.413574	36239.945313	3065.126465	5.453956
533.732239	1183.270874	38246.953125	3315.433838	5.752701
534.080139	1144.586914	39032.007813	3235.790527	5.519519
534.427917	1217.403687	37928.378906	3185.729004	5.361681
534.775757	1180.995239	36888.468750	3062.851074	5.270202
535.123474	1162.791138	35409.378906	2926.319824	5.149502
535.471191	1199.199463	33074.695313	2830.747803	5.118504
535.818848	1203.750488	31789.025391	2853.503174	5.393944
536.166382	1167.342163	30869.714844	2587.267090	4.780510
536.513977	1165.066650	30935.705078	2632.777588	4.930062
536.861511	1183.270874	30949.359375	2701.043213	5.098999
537.208984	1155.964600	31149.603516	2719.247314	5.212048
537.556396	1171.893188	31088.166016	2605.471436	4.791968
537.903809	1126.382813	30225.742188	2628.226563	5.161089
538.251160	1128.658325	29634.107422	2553.134277	4.997206
538.598389	1167.342163	28439.458984	2528.103516	4.989570
538.945740	1162.791138	27547.455078	2466.664551	4.941785
539.292969	1144.586914	27131.035156	2339.235352	4.597198
539.640137	1099.076538	26673.654297	2384.745850	5.027138
539.987244	1153.689087	26962.646484	2412.052002	4.875683
540.334351	1203.750488	28018.488281	2423.429688	4.548541
540.681458	1180.995239	29351.943359	2464.388916	4.555735
541.028442	1140.035889	31964.240234	2528.103516	4.503174
541.375366	1212.852539	34974.753906	2614.573486	4.151783
541.722290	1194.648438	37782.746094	2757.931152	4.272654
542.069153	1190.097412	39619.093750	2676.012451	3.866651
542.416016	1137.760376	39762.449219	2773.859863	4.235890
542.762756	1162.791138	38975.121094	2748.829102	4.194499
543.109558	1130.933838	37664.421875	2714.696289	4.335098
543.456299	1228.781250	36057.902344	2557.685303	3.815497
543.802917	1151.413574	34806.367188	2530.379150	4.097363
544.149536	1178.719727	32890.378906	2493.970703	4.147531
544.496094	1130.933838	30635.335938	2380.194824	4.234151
544.842651	1174.168701	29094.808594	2252.765625	3.863081
545.189148	1233.332275	27988.906250	2284.622803	3.929239
545.535583	1258.363037	26894.380859	2150.367188	3.479496
545.882019	1208.301514	26364.183594	2230.010498	4.061511
546.228333	1176.444214	25861.292969	2166.295898	4.009956
546.574707	1135.484863	25831.712891	2102.581299	3.915968
546.920898	1155.964600	25783.925781	2025.213501	3.529520
547.267212	1146.862427	25929.558594	2059.346436	3.681940
547.613342	1153.689087	25906.804688	2150.367188	4.026475
547.959473	1237.883301	25501.761719	2075.274902	3.451186
548.305664	1240.158813	24436.818359	2075.274902	3.600157
548.651611	1194.648438	23826.978516	2016.111450	3.629600
548.997742	1180.995239	22616.400391	1988.805176	3.768578
549.343689	1226.505737	22204.531250	1920.539551	3.308385
549.689575	1151.413574	21055.394531	1834.069824	3.429747
550.035522	1183.270874	20070.093750	1856.824951	3.566265
550.381287	1171.893188	19715.111328	1818.141113	3.485090
550.727173	1206.026001	19341.927734	1770.355225	3.111669
551.072876	1185.546387	19137.130859	1786.283813	3.346431
551.418640	1203.750488	18893.648438	1743.048950	3.048624
551.764282	1183.270874	18672.923828	1843.171875	3.773094
552.109863	1178.719727	18814.005859	1799.937012	3.522582
552.455505	1078.596802	18759.392578	1747.599976	3.783784
552.801025	1158.240112	19321.447266	1743.048950	3.219744
553.146545	1226.505737	19107.548828	1768.079712	3.028760
553.491943	1210.577026	19692.357422	1786.283813	3.114996
553.837341	1199.199463	19826.613281	1847.722900	3.481554
554.182800	1201.474976	19148.507813	1749.875488	3.055661
554.528015	1187.821899	19032.455078	1724.844727	3.009436
554.873352	1144.586914	18600.107422	1774.906250	3.611003
555.218628	1142.311401	18381.656250	1758.977539	3.577085
555.563721	1128.658325	18236.023438	1713.467163	3.418462
555.908875	1174.168701	18024.400391	1745.324463	3.389602
556.254028	1176.444214	17655.765625	1661.130127	2.941176
556.599121	1176.444214	17594.326172	1645.201538	2.855163
556.944031	1144.586914	17175.630859	1699.814087	3.463450
557.289063	1183.270874	17212.039063	1663.405762	2.995457
557.633972	1185.546387	17016.343750	1661.130127	3.004168
557.978882	1074.045776	16970.833984	1624.721802	3.464071
558.323792	1130.933838	16863.884766	1624.721802	3.138559
558.668518	1169.617676	16645.435547	1597.415649	2.764300
559.013306	1231.056763	16727.353516	1592.864502	2.334801
559.358032	1203.750488	16852.507813	1613.344238	2.617420
559.702637	1178.719727	16777.414063	1617.895264	2.815464
560.047363	1249.260864	16556.689453	1615.619751	2.393341
560.391846	1267.465088	16590.822266	1597.415649	2.153252
560.736450	1180.995239	16474.771484	1633.823975	2.960869
561.080933	1221.954712	16825.201172	1592.864502	2.377132
561.425354	1221.954712	16806.996094	1570.109375	2.233903
561.769775	1210.577026	16863.884766	1576.935913	2.340457
562.114136	1176.444214	17011.792969	1549.629639	2.356661
562.458496	1174.168701	16895.742188	1697.538574	3.328992
562.802673	1187.821899	16777.414063	1590.588989	2.583564
563.146912	1133.209351	16857.058594	1556.456177	2.691751
563.491150	1155.964600	16595.373047	1561.007324	2.623434
563.835266	1174.168701	16527.107422	1535.976563	2.356603
564.179443	1196.923950	16784.242188	1576.935913	2.437956
564.523438	1146.862427	16602.199219	1574.660400	2.767963
564.867493	1126.382813	16836.578125	1583.762451	2.911355
565.211426	1135.484863	16968.558594	1658.854614	3.305547
565.555359	1158.240112	17159.703125	1572.384888	2.588168
565.899231	1144.586914	17673.970703	1665.681274	3.152534
566.243042	1144.586914	18040.328125	1706.640625	3.326600
566.586914	1201.474976	18263.330078	1606.517700	2.373966
566.930603	1169.617676	18775.322266	1613.344238	2.520357
567.274292	1142.311401	18980.119141	1649.752563	2.844751
567.617981	1162.791138	18841.312500	1604.242188	2.497104
567.961609	1187.821899	18547.769531	1620.170776	2.490496
568.305237	1124.107300	18140.451172	1554.180664	2.527413
568.648682	1146.862427	17892.419922	1531.425537	2.296508
568.992188	1169.617676	17758.164063	1615.619751	2.688615
569.335632	1167.342163	17318.988281	1567.833862	2.479572
569.679016	1174.168701	17325.814453	1540.527588	2.268245
570.022461	1169.617676	17166.529297	1583.762451	2.588904
570.365662	1146.862427	17633.009766	1583.762451	2.650104
570.708984	1190.097412	17466.898438	1510.945801	1.971201
571.052185	1101.352051	17587.500000	1617.895264	3.133195
571.395386	1196.923950	17539.714844	1633.823975	2.673350
571.738525	1165.066650	18210.992188	1601.966675	2.563076
572.081604	1187.821899	18606.933594	1588.313477	2.299150
572.424683	1210.577026	18732.087891	1561.007324	2.000000
572.767578	1208.301514	19298.691406	1561.007324	1.949686
573.110596	1185.546387	18989.220703	1606.517700	2.364519
573.453552	1221.954712	19037.007813	1561.007324	1.903180
573.796387	1137.760376	18784.423828	1581.486938	2.514507
574.139282	1144.586914	18402.136719	1622.446289	2.768987
574.481995	1224.230225	18204.166016	1592.864502	2.170999
574.824768	1165.066650	18240.574219	1601.966675	2.558636
575.167480	1119.556274	18261.054688	1624.721802	2.947032
575.510132	1199.199463	17746.787109	1649.752563	2.722772
575.852722	1146.862427	18113.146484	1567.833862	2.481224
576.195251	1210.577026	17883.318359	1542.803101	1.992630
576.537842	1165.066650	17617.082031	1504.119263	2.060858
576.880188	1171.893188	17387.253906	1595.140137	2.610161
577.222717	1201.474976	17187.007813	1513.221313	1.950178
577.565063	1192.372925	16606.750000	1510.945801	2.066725
577.907410	1158.240112	16137.993164	1435.853638	1.853258
578.249756	1121.831787	15962.778320	1456.333252	2.253909
578.591919	1151.413574	15769.359375	1542.803101	2.677459
578.934204	1224.230225	15362.041016	1533.701050	2.188959
579.276306	1174.168701	15491.746094	1556.456177	2.670057
579.618469	1137.760376	14895.559570	1374.414551	1.720146
579.960571	1151.413574	14904.661133	1467.710938	2.299801
580.302551	1165.066650	14340.332031	1472.261963	2.331606
580.644531	1301.597900	14276.617188	1401.720825	0.771659
580.986511	1187.821899	14178.770508	1431.302612	1.874234
581.328369	1149.138062	14051.340820	1451.782227	2.345678
581.670227	1176.444214	13921.636719	1465.435425	2.267453
582.012024	1112.729614	13880.676758	1413.098389	2.352522
582.353821	1215.128052	13882.952148	1433.578125	1.724448
582.695496	1151.413574	13616.716797	1508.670288	2.866009
583.037231	1190.097412	13646.297852	1424.476074	1.881622
583.378845	1146.862427	13744.145508	1356.210449	1.661851
583.720398	1137.760376	13578.032227	1472.261963	2.688861
584.062012	1158.240112	13471.083008	1394.894287	1.922011
584.403442	1108.178589	13373.235352	1458.608887	2.857144
584.744934	1146.862427	13327.725586	1454.057739	2.521950
585.086365	1133.209351	13593.960938	1408.547363	2.209642
585.427734	1158.240112	13345.929688	1458.608887	2.464526
585.768982	1203.750488	13375.511719	1429.027100	1.850814
586.110291	1165.066650	13227.602539	1465.435425	2.490096
586.451599	1192.372925	13471.083008	1447.231201	2.075611
586.792725	1183.270874	13225.327148	1454.057739	2.248676
587.133850	1176.444214	13302.694336	1301.597900	1.032089
587.474915	1178.719727	13380.062500	1463.159912	2.331220
587.815979	1192.372925	13304.969727	1431.302612	1.972572
588.157043	1235.607788	13350.480469	1435.853638	1.652893
588.497925	1133.209351	13361.858398	1488.190552	2.902865
588.838867	1199.199463	13393.715820	1374.414551	1.436835
589.179749	1199.199463	13286.765625	1378.965576	1.487199
589.520569	1219.679199	13578.032227	1440.404663	1.786043
589.861450	1212.852539	13985.350586	1422.200562	1.639053
590.202087	1208.301514	13871.575195	1474.537476	2.102426
590.542847	1185.546387	13985.350586	1392.618774	1.617778
590.883484	1215.128052	13958.044922	1458.608887	1.910715
591.224121	1242.434326	13755.523438	1442.680176	1.600291
591.564636	1149.138062	13980.799805	1403.996338	1.986167
591.905151	1187.821899	13509.766602	1476.812988	2.345337
592.245667	1251.536499	13425.572266	1520.047852	2.205607
592.585999	1180.995239	13553.001953	1517.772339	2.722090
592.926453	1235.607788	13641.747070	1433.578125	1.595745
593.266724	1160.515625	13482.460938	1469.986450	2.511542
593.607056	1112.729614	13357.306641	1408.547363	2.415908
593.947388	1155.964600	13500.665039	1451.782227	2.396313
594.287476	1196.923950	13700.911133	1504.119263	2.456779
594.627686	1187.821899	13675.879883	1551.905151	2.915452
594.967773	1178.719727	13933.013672	1397.169800	1.712757
595.307861	1096.801025	13864.748047	1449.506714	2.762431
595.647888	1194.648438	14067.269531	1447.231201	1.962170
595.987854	1201.474976	14151.463867	1429.027100	1.757161
596.327820	1196.923950	14481.414063	1413.098389	1.627269
596.667725	1199.199463	14840.946289	1417.649414	1.601334
597.007568	1196.923950	15391.623047	1460.884399	1.859571
597.347351	1155.964600	15600.970703	1497.292725	2.362949
597.687073	1146.862427	16051.523438	1504.119263	2.396947
598.026794	1178.719727	16106.136719	1563.282837	2.576220
598.366455	1190.097412	15648.756836	1515.496826	2.250551
598.706116	1162.791138	15129.937500	1517.772339	2.541544
599.045654	1215.128052	14825.017578	1458.608887	1.788999
599.385193	1196.923950	14226.555664	1479.088501	2.165560
599.724731	1146.862427	13632.645508	1492.741699	2.770185
600.064087	1151.413574	13466.532227	1399.445313	2.014043
600.403564	1149.138062	13061.489258	1410.822876	2.196752
600.742920	1206.026001	13097.897461	1490.466064	2.391886
601.082153	1130.933838	12827.110352	1419.924927	2.470817
601.421387	1274.291626	12756.569336	1401.720825	1.109790
601.760620	1192.372925	12742.916016	1479.088501	2.482269
602.099854	1212.852539	12854.416992	1417.649414	1.759187
602.438843	1201.474976	12699.681641	1472.261963	2.355037
602.778015	1169.617676	13177.541016	1408.547363	1.989767
603.117065	1187.821899	13077.417969	1424.476074	1.990431
603.456055	1244.709839	13725.941406	1397.169800	1.221514
603.794983	1099.076538	13860.197266	1469.986450	2.906562
604.133850	1178.719727	14740.824219	1415.373901	1.744967
604.472778	1126.382813	15220.958984	1435.853638	2.195673
604.811584	1119.556274	15437.132813	1515.496826	2.765416
605.150330	1153.689087	15899.063477	1481.364014	2.222222
605.489075	1165.066650	16320.035156	1460.884399	1.951952
605.827698	1162.791138	15924.094727	1469.986450	2.081085
606.166382	1215.128052	15960.502930	1526.874512	2.114198
606.504883	1142.311401	15205.030273	1501.843750	2.556635
606.843445	1103.627563	14829.569336	1485.915039	2.785146
607.181946	1151.413574	14465.485352	1469.986450	2.392753
607.520386	1171.893188	13930.738281	1419.924927	1.943998
607.858826	1133.209351	13170.714844	1490.466064	2.967863
608.197083	1187.821899	13598.512695	1394.894287	1.668500
608.535461	1178.719727	13261.735352	1454.057739	2.278719
608.873718	1117.280762	13211.673828	1495.017212	3.123236
609.211914	1142.311401	13343.654297	1424.476074	2.312571
609.550171	1185.546387	13832.890625	1435.853638	1.979129
609.888245	1144.586914	14456.383789	1415.373901	2.034188
610.226318	1210.577026	14447.281250	1426.751587	1.633145
610.564392	1199.199463	14360.811523	1442.680176	1.849931
610.902344	1235.607788	14488.241211	1497.292725	1.974588
611.240295	1160.515625	14324.403320	1447.231201	2.178046
611.578247	1160.515625	14001.279297	1415.373901	1.984759
611.916138	1160.515625	13548.451172	1435.853638	2.222630
612.253845	1203.750488	13188.918945	1392.618774	1.575850
612.591675	1158.240112	12831.662109	1476.812988	2.729044
612.929382	1151.413574	12629.140625	1472.261963	2.795400
613.267090	1155.964600	12212.719727	1356.210449	1.811072
613.604736	1180.995239	11991.994141	1401.720825	2.041676
613.942261	1151.413574	11910.076172	1451.782227	2.791877
614.279785	1203.750488	11807.677734	1394.894287	1.802575
614.617310	1233.332275	11630.186523	1374.414551	1.356971
614.954712	1103.627563	11666.594727	1444.955688	3.231366
615.292175	1128.658325	11495.930664	1356.210449	2.194908
615.629517	1121.831787	11457.247070	1347.108276	2.179656
615.966797	1194.648438	11454.971680	1410.822876	2.106897
616.304138	1146.862427	11236.521484	1406.271851	2.571043
616.641296	1187.821899	11436.767578	1363.036987	1.709591
616.978516	1149.138062	11231.970703	1369.863525	2.189121
617.315552	1199.199463	11263.828125	1406.271851	2.057427
617.652771	1140.035889	11277.481445	1360.761475	2.177330
617.989685	1174.168701	11607.431641	1394.894287	2.115595
618.326721	1199.199463	11461.797852	1460.884399	2.549890
618.663696	1180.995239	11354.848633	1394.894287	2.102439
619.000549	1221.954712	11307.062500	1454.057739	2.301443
619.337463	1153.689087	11484.553711	1426.751587	2.643172
619.674194	1196.923950	11165.980469	1442.680176	2.465190
620.010986	1210.577026	11352.573242	1410.822876	1.974422
620.347778	1192.372925	11284.307617	1376.690063	1.826381
620.684387	1153.689087	11245.624023	1415.373901	2.593009
621.020996	1219.679199	11097.714844	1447.231201	2.303616
621.357605	1165.066650	11191.011719	1358.485962	1.929188
621.694214	1203.750488	10879.264648	1417.649414	2.210724
622.030579	1215.128052	10890.642578	1490.466064	2.845720
622.367065	1210.577026	10895.193359	1356.210449	1.503760
622.703430	1185.546387	10710.875977	1324.353149	1.457238
623.039795	1196.923950	10808.723633	1347.108276	1.562500
623.376160	1153.689087	10804.172852	1394.894287	2.499411
623.712402	1221.954712	10697.223633	1397.169800	1.849183
624.048645	1155.964600	10888.367188	1463.159912	3.156418
624.384766	1137.760376	10692.671875	1381.241089	2.548226
624.720886	1187.821899	10779.141602	1369.863525	1.897983
625.057007	1176.444214	10902.020508	1429.027100	2.597100
625.392944	1219.679199	10899.745117	1390.343262	1.763046
625.729004	1203.750488	10913.397461	1353.934937	1.546755
626.064941	1158.240112	11034.000000	1347.108276	1.912442
626.400818	1201.474976	11286.583008	1356.210449	1.534297
626.736633	1128.658325	11548.268555	1460.884399	3.188469
627.072449	1190.097412	11712.105469	1344.832764	1.470588
627.408264	1142.311401	11973.790039	1440.404663	2.752101
627.743896	1262.914063	11937.381836	1372.139038	1.023236
628.079590	1174.168701	12060.259766	1408.547363	2.153010
628.415161	1176.444214	11750.789063	1342.557251	1.570906
628.750793	1194.648438	11520.961914	1406.271851	2.049361
629.086365	1224.230225	11414.012695	1369.863525	1.429209
629.421753	1153.689087	11188.735352	1381.241089	2.267573
629.757263	1169.617676	11225.144531	1390.343262	2.195067
630.092651	1162.791138	10776.866211	1410.822876	2.579881
630.427917	1151.413574	10863.335938	1394.894287	2.507029
630.763184	1135.484863	10635.784180	1378.965576	2.562874
631.098511	1146.862427	10501.528320	1447.231201	3.210898
631.433716	1169.617676	10499.252930	1374.414551	2.195122
631.768799	1203.750488	10560.692383	1369.863525	1.775292
632.103943	1174.168701	10116.965820	1388.067749	2.391859
632.438965	1162.791138	10025.944336	1419.924927	2.901155
632.773987	1190.097412	9930.373047	1376.690063	2.134860
633.109070	1142.311401	10005.464844	1399.445313	2.901156
633.443848	1185.546387	9725.576172	1376.690063	2.238209
633.778870	1133.209351	9971.332031	1335.730713	2.291452
634.113708	1228.781250	9900.791016	1388.067749	1.836789
634.448425	1115.005249	10107.863281	1322.077637	2.302631
634.783264	1155.964600	10151.098633	1435.853638	3.111561
635.117859	1180.995239	10157.924805	1378.965576	2.205323
635.452576	1196.923950	10041.873047	1433.578125	2.675586
635.787170	1151.413574	9957.678711	1363.036987	2.403100
636.121704	1190.097412	9773.362305	1274.291626	0.980911
636.456177	1224.230225	9702.820313	1397.169800	2.039721
636.790588	1146.862427	9384.248047	1358.485962	2.569062
637.125122	1124.107300	9513.952148	1390.343262	3.173312
637.459412	1160.515625	9445.686523	1440.404663	3.378193
637.793762	1242.434326	9263.645508	1303.873413	0.765958
638.128052	1124.107300	9147.593750	1283.393677	1.985251
638.462280	1201.474976	9063.399414	1324.353149	1.562953
638.796509	1155.964600	9215.859375	1415.373901	3.218520
639.130615	1108.178589	8983.755859	1381.241089	3.467206
639.464722	1155.964600	8954.174805	1349.383789	2.480302
639.798767	1167.342163	8874.531250	1390.343262	2.893417
640.132751	1192.372925	9081.603516	1374.414551	2.307470
640.466736	1201.474976	8662.907227	1319.802124	1.585850
640.800598	1249.260864	8558.233398	1392.618774	1.961396
641.134521	1117.280762	8637.876953	1328.904175	2.813918
641.468262	1121.831787	8446.733398	1349.383789	3.106554
641.802063	1171.893188	8408.049805	1283.393677	1.540880
642.135803	1208.301514	8396.671875	1365.312500	2.184236
642.469421	1187.821899	8342.059570	1258.363037	0.986005
642.803101	1155.964600	8294.273438	1358.485962	2.837106
643.136658	1153.689087	8200.976563	1233.332275	1.130125
643.470215	1169.617676	8291.998047	1326.628662	2.204473
643.803711	1224.230225	8294.273438	1262.914063	0.547151
644.137085	1110.454102	8200.976563	1328.904175	3.080874
644.470581	1133.209351	8223.732422	1278.842651	2.053915
644.803833	1226.505737	8282.895508	1285.669312	0.838440
645.137207	1169.617676	8189.599121	1392.618774	3.176662
645.470459	1178.719727	8134.986816	1356.210449	2.551522
645.803589	1146.862427	8223.732422	1306.148926	2.250804
646.136780	1167.342163	8134.986816	1335.730713	2.416721
646.469849	1201.474976	8401.222656	1413.098389	2.939317
646.802979	1215.128052	8109.956055	1306.148926	1.320133
647.135986	1251.536499	8330.681641	1394.894287	2.025072
647.468994	1185.546387	8278.344727	1353.934937	2.374078
647.801941	1126.382813	8319.303711	1319.802124	2.689023
648.134766	1126.382813	8239.661133	1376.690063	3.518873
648.467651	1196.923950	8169.119629	1360.761475	2.349870
648.800354	1162.791138	8355.711914	1301.597900	1.929769
649.133179	1126.382813	8205.528320	1249.260864	1.735775
649.465881	1201.474976	8139.538086	1256.087524	0.787144
649.798462	1187.821899	8367.089844	1269.740601	1.141045
650.131104	1201.474976	8264.691406	1369.863525	2.384021
650.463623	1190.097412	8150.915527	1338.006226	2.124877
650.796143	1153.689087	8171.395020	1353.934937	2.853437
651.128662	1158.240112	8235.109375	1308.424438	2.122186
651.461060	1133.209351	8232.833984	1242.434326	1.538461
651.793396	1183.270874	8348.885742	1344.832764	2.254683
652.125732	1194.648438	8237.385742	1328.904175	1.906301
652.458008	1153.689087	8287.446289	1410.822876	3.604465
652.790222	1128.658325	8323.855469	1301.597900	2.403542
653.122437	1201.474976	8087.201172	1306.148926	1.520159
653.454529	1190.097412	8066.721191	1360.761475	2.481800
653.786621	1165.066650	7955.220703	1388.067749	3.284183
654.118713	1183.270874	8066.721191	1381.241089	2.876032
654.450623	1185.546387	8071.272461	1360.761475	2.544613
654.782654	1153.689087	7996.180176	1349.383789	2.859992
655.114502	1287.944824	8057.619141	1342.557251	0.806722
655.446350	1096.801025	7836.893555	1276.567139	2.667116
655.778198	1192.372925	7941.567383	1299.322388	1.584626
656.109863	1196.923950	7984.802734	1338.006226	2.078444
656.441650	1126.382813	7839.168945	1308.424438	2.711864
656.773254	1171.893188	7845.995605	1338.006226	2.488919
657.104919	1190.097412	7784.556641	1315.250977	1.897859
657.436462	1171.893188	7845.995605	1333.455200	2.420730
657.767944	1212.852539	7955.220703	1267.465088	0.809991
658.099548	1228.781250	8055.343750	1426.751587	2.900000
658.430908	1187.821899	8048.517090	1385.792114	2.885571
658.762268	1119.556274	8219.180664	1326.628662	2.916667
659.093628	1101.352051	8489.967773	1338.006226	3.202957
659.424927	1174.168701	8858.602539	1381.241089	2.694700
659.756226	1133.209351	9029.266602	1360.761475	2.881845
660.087341	1219.679199	9270.471680	1399.445313	2.232900
660.418518	1192.372925	9231.788086	1301.597900	1.358618
660.749573	1167.342163	9190.828125	1349.383789	2.268860
661.080627	1128.658325	9040.644531	1276.567139	1.869427
661.411621	1158.240112	8940.521484	1378.965576	2.836257
661.742554	1149.138062	8838.123047	1333.455200	2.397158
662.073547	1169.617676	8378.467773	1258.363037	1.231061
662.404297	1153.689087	8514.999023	1360.761475	2.812983
662.735229	1199.199463	8166.844238	1269.740601	1.012410
663.065979	1199.199463	7950.669922	1338.006226	2.055948
663.396667	1162.791138	7882.404297	1299.322388	2.031832
663.727417	1167.342163	7682.158203	1308.424438	2.165560
664.057922	1221.954712	7761.801270	1265.189575	0.661099
664.388611	1194.648438	7452.330566	1269.740601	1.200000
664.719116	1190.097412	7588.861816	1349.383789	2.489330
665.049622	1208.301514	7459.157227	1331.179688	1.965782
665.380005	1210.577026	7386.340332	1262.914063	0.847459
665.710388	1190.097412	7393.166992	1258.363037	1.100514
666.040771	1165.066650	7156.512695	1353.934937	3.152299
666.371033	1199.199463	7386.340332	1308.424438	1.765355
666.701294	1235.607788	7224.778320	1335.730713	1.671733
667.031555	1105.903076	7176.992676	1378.965576	4.497751
667.361633	1165.066650	7340.830078	1303.873413	2.247605
667.691772	1174.168701	7249.809082	1349.383789	2.883895
668.021790	1244.709839	7206.574219	1310.699951	1.106870
668.351807	1160.515625	7147.410645	1353.934937	3.230712
668.681763	1174.168701	7158.788574	1253.812012	1.330800
669.011719	1117.280762	7147.410645	1397.169800	4.641509
669.341614	1133.209351	7258.911133	1251.536499	1.931651
669.671387	1153.689087	7122.379883	1285.669312	2.211209
670.001221	1199.199463	7304.421875	1372.139038	2.832650
670.330933	1196.923950	7258.911133	1324.353149	2.102103
670.660583	1208.301514	7197.472168	1292.495850	1.405776
670.990173	1242.434326	7447.779785	1262.914063	0.330034
671.319763	1201.474976	7035.910156	1285.669312	1.443059
671.649292	1208.301514	7090.522949	1276.567139	1.160542
671.978821	1133.209351	7051.838867	1353.934937	3.729336
672.308289	1187.821899	7040.461426	1294.771362	1.827371
672.637695	1201.474976	7076.869629	1351.659302	2.556157
672.966980	1096.801025	6801.531738	1335.730713	4.188273
673.296326	1126.382813	6840.215332	1253.812012	2.230188
673.625610	1224.230225	6662.725098	1319.802124	1.757323
673.954773	1178.719727	6819.735840	1317.526489	2.460670
674.283936	1119.556274	6812.909180	1351.659302	4.076737
674.613037	1180.995239	6771.949707	1269.740601	1.587302
674.942078	1196.923950	6751.470215	1251.536499	0.983204
675.271118	1155.964600	6635.418457	1390.343262	4.277409
675.600098	1251.536499	6785.603027	1308.424438	1.027959
675.928955	1203.750488	6435.172852	1397.169800	3.697260
676.257813	1174.168701	6430.621582	1285.669312	2.121214
676.586670	1158.240112	6703.684082	1328.904175	3.077555
676.915466	1215.128052	6610.387695	1297.046875	1.518348
677.244141	1233.332275	6692.306641	1335.730713	1.875782
677.572876	1185.546387	6551.224609	1335.730713	2.798981
677.901489	1208.301514	6564.877441	1328.904175	2.251488
678.230042	1215.128052	6476.132324	1292.495850	1.470590
678.558594	1149.138062	6669.551270	1267.465088	2.143445
678.887085	1165.066650	6580.806152	1281.118164	2.142856
679.215515	1117.280762	6740.092773	1328.904175	3.763658
679.543945	1187.821899	6826.562500	1294.771362	1.896691
679.872253	1221.954712	6963.093750	1360.761475	2.417757
680.200562	1196.923950	7117.829102	1262.914063	1.114527
680.528809	1165.066650	7038.186035	1319.802124	2.634639
680.856995	1192.372925	7208.850098	1301.597900	1.815431
681.185120	1140.035889	7297.595215	1285.669312	2.365116
681.513306	1183.270874	7261.187012	1363.036987	2.957693
681.841309	1115.005249	7329.452637	1303.873413	3.039179
682.169373	1190.097412	7302.146484	1274.291626	1.377512
682.497314	1171.893188	7288.493164	1308.424438	2.232143
682.825134	1155.964600	7190.645508	1297.046875	2.337858
683.153076	1201.474976	7149.686523	1283.393677	1.377199
683.480896	1180.995239	6938.062988	1290.220337	1.897235
683.808655	1162.791138	6906.205566	1278.842651	2.020601
684.136414	1208.301514	6885.726074	1326.628662	2.084169
684.464050	1224.230225	6639.969727	1235.607788	0.210083
684.791626	1155.964600	6507.989258	1319.802124	3.061225
685.119263	1201.474976	6667.275879	1326.628662	2.289759
685.446838	1146.862427	6453.376953	1322.077637	3.301889
685.774292	1119.556274	6339.601074	1274.291626	2.964253
686.101685	1137.760376	6414.693359	1244.709839	2.026735
686.429077	1094.525513	6241.753418	1237.883301	2.785146
686.756348	1137.760376	6216.722656	1308.424438	3.360215
687.083679	1180.995239	6259.957520	1328.904175	2.912188
687.410950	1119.556274	6423.795410	1242.434326	2.316601
687.738159	1180.995239	6394.213379	1303.873413	2.357050
688.065308	1233.332275	6321.396973	1256.087524	0.447228
688.392395	1246.985352	6403.315430	1335.730713	1.721095
688.719421	1183.270874	6441.999512	1322.077637	2.639550
689.046448	1221.954712	6414.693359	1290.220337	1.314636
689.373413	1162.791138	6280.437500	1224.230225	1.200534
689.700317	1208.301514	6364.631836	1249.260864	0.794351
690.027100	1196.923950	6259.957520	1246.985352	0.988763
690.353943	1203.750488	6189.416504	1274.291626	1.414879
690.680725	1142.311401	6064.262695	1226.505737	1.710589
691.007446	1167.342163	6137.079590	1249.260864	1.648351
691.334106	1130.933838	5948.211426	1272.016113	2.928673
691.660645	1062.668213	5927.731445	1244.709839	3.741814
691.987244	1151.413574	5825.333008	1290.220337	2.969815
692.313721	1199.199463	5677.424316	1240.158813	0.914634
692.640259	1087.698975	5638.740723	1303.873413	4.749999
692.966675	1144.586914	5561.373047	1228.781250	1.906235
693.293030	1201.474976	5552.270996	1217.403687	0.366110
693.619324	1206.026001	5461.250000	1251.536499	1.069521
693.945618	1169.617676	5675.148926	1201.474976	0.707071
694.271851	1171.893188	5452.147949	1251.536499	1.860714
694.598083	1212.852539	5436.219238	1258.363037	1.077588
694.924194	1174.168701	5381.606934	1258.363037	2.001083
695.250244	1183.270874	5361.126953	1265.189575	1.960783
695.576294	1190.097412	5424.841797	1274.291626	1.988177
695.902283	1146.862427	5565.923828	1265.189575	2.677653
696.228210	1185.546387	5484.005371	1256.087524	1.641080
696.554138	1183.270874	5504.484863	1338.006226	3.580831
696.879944	1178.719727	5611.434082	1276.567139	2.207393
697.205750	1196.923950	5458.974609	1292.495850	2.242392
697.531433	1151.413574	5618.260742	1299.322388	3.311258
697.857178	1190.097412	5738.863281	1372.139038	4.002000
698.182739	1158.240112	5950.486816	1287.944824	2.706553
698.508423	1206.026001	6155.283691	1365.312500	3.218392
698.833984	1185.546387	6469.305664	1249.260864	1.205855
699.159485	1101.352051	6678.653320	1331.179688	4.120768
699.484924	1153.689087	6740.092773	1283.393677	2.321790
699.810303	1142.311401	6965.369141	1276.567139	2.305588
700.135681	1140.035889	7029.083984	1274.291626	2.279753
700.460999	1219.679199	6851.593262	1221.954712	0.040404
700.786255	1206.026001	6592.183594	1322.077637	2.154628
701.111450	1167.342163	6376.009277	1283.393677	2.228046
701.436646	1144.586914	6244.029297	1340.281738	3.837573
701.761719	1192.372925	5998.272949	1331.179688	2.888258
702.086792	1165.066650	6016.477051	1308.424438	2.954972
702.411865	1155.964600	5807.128906	1251.536499	2.054795
702.736816	1215.128052	5668.322266	1246.985352	0.715381
703.061646	1162.791138	5547.719727	1194.648438	0.726518
703.386536	1194.648438	5251.901855	1292.495850	2.411666
703.711365	1219.679199	5311.065430	1276.567139	1.390432
704.036194	1196.923950	5124.472656	1203.750488	0.173812
704.360901	1174.168701	5022.074219	1242.434326	1.774098
704.685547	1162.791138	4915.125000	1192.372925	0.788357
705.010132	1208.301514	5067.584961	1249.260864	1.061320
705.334717	1121.831787	4960.635254	1258.363037	3.556610
705.659302	1228.781250	4812.726563	1283.393677	1.523808
705.983765	1140.035889	4721.705566	1310.699951	4.764930
706.308228	1274.291626	4821.828613	1244.709839	-0.833868
706.632568	1133.209351	4780.869141	1169.617676	0.998128
706.956909	1119.556274	4799.073242	1292.495850	4.700062
707.281189	1140.035889	4815.001953	1278.842651	3.777090
707.605408	1158.240112	4835.481934	1251.536499	2.537130
707.929626	1183.270874	4762.665039	1240.158813	1.589318
708.253784	1167.342163	4958.359863	1242.434326	1.980792
708.577820	1226.505737	4794.522461	1272.016113	1.275509
708.901855	1146.862427	4694.399414	1260.638550	3.207186
709.225830	1221.954712	4787.695801	1338.006226	3.254625
709.549805	1171.893188	4815.001953	1299.322388	3.497815
709.873718	1185.546387	4944.706543	1340.281738	4.116221
710.197510	1153.689087	4944.706543	1322.077637	4.441777
710.521362	1233.332275	5094.891113	1315.250977	2.121389
710.845093	1192.372925	4910.573730	1219.679199	0.734395
711.168701	1160.515625	5001.594727	1246.985352	2.251183
711.492432	1149.138062	5044.829590	1262.914063	2.920560
711.816040	1119.556274	5094.891113	1262.914063	3.606181
712.139587	1199.199463	5103.993164	1297.046875	2.505828
712.463074	1146.862427	5242.799805	1287.944824	3.444447
712.786499	1176.444214	5438.494629	1237.883301	1.441538
713.109924	1155.964600	5245.075684	1231.056763	1.836393
713.433350	1190.097412	5210.942871	1258.363037	1.697793
713.756592	1155.964600	5113.095215	1244.709839	2.242666
714.079834	1196.923950	5074.411621	1283.393677	2.230045
714.403015	1165.066650	4956.084473	1228.781250	1.680673
714.726196	1192.372925	4935.604492	1301.597900	2.917933
715.049255	1171.893188	4903.747559	1292.495850	3.231709
715.372375	1249.260864	4901.471680	1235.607788	-0.373830
715.695435	1174.168701	4910.573730	1192.372925	0.487212
716.018311	1187.821899	4896.920898	1237.883301	1.349692
716.341248	1178.719727	4894.645020	1262.914063	2.265770
716.664063	1176.444214	4919.675781	1274.291626	2.613982
716.987000	1210.577026	4924.227051	1267.465088	1.531864
717.309692	1165.066650	4919.675781	1237.883301	1.939394
717.632385	1183.270874	4755.838379	1265.189575	2.292993
717.955078	1105.903076	4794.522461	1351.659302	6.662553
718.277649	1155.964600	4610.205078	1324.353149	4.874836
718.600220	1208.301514	4723.980957	1308.424438	2.847897
718.922791	1226.505737	4683.021973	1244.709839	0.526660
719.245300	1133.209351	4448.643066	1233.332275	3.019904
719.567688	1224.230225	4291.632324	1203.750488	-0.667657
719.890015	1224.230225	4355.346680	1226.505737	0.072674
720.212341	1176.444214	4268.876953	1219.679199	1.398090
720.534607	1194.648438	4232.468750	1306.148926	3.670411
720.856873	1121.831787	4141.447754	1260.638550	4.596835
721.179016	1140.035889	4066.355713	1221.954712	2.799380
721.501160	1151.413574	4118.692871	1192.372925	1.380367
721.823242	1171.893188	4109.590332	1310.699951	4.725019
722.145264	1151.413574	4159.651855	1253.812012	3.403934
722.467224	1208.301514	3991.263428	1233.332275	0.899429
722.789185	1155.964600	4073.182129	1228.781250	2.496099
723.111023	1167.342163	4084.559814	1237.883301	2.418096
723.432861	1219.679199	3902.518066	1262.914063	1.611534
723.754578	1149.138062	4052.702637	1267.465088	4.075233
724.076294	1192.372925	3979.885986	1265.189575	2.612244
724.397949	1199.199463	3836.528076	1240.158813	1.553062
724.719666	1133.209351	3988.988037	1333.455200	7.011952
725.041260	1178.719727	4014.018799	1308.424438	4.574639
725.362732	1158.240112	4029.947266	1158.240112	0.000000
725.684265	1096.801025	4043.600586	1171.893188	2.548262
726.005676	1158.240112	3984.437012	1231.056763	2.576489
726.327087	1221.954712	3836.528076	1249.260864	1.044383
726.648438	1169.617676	3968.508301	1212.852539	1.544714
726.969666	1221.954712	3986.712402	1274.291626	1.893002
727.290894	1228.781250	3938.926514	1310.699951	3.022668
727.612061	1126.382813	4050.427002	1319.802124	6.614788
727.933228	1244.709839	4070.906738	1253.812012	0.322064
728.254395	1135.484863	4268.876953	1206.026001	2.251271
728.575378	1144.586914	4257.499512	1322.077637	5.701757
728.896301	1124.107300	4080.008789	1308.424438	6.235565
729.217285	1176.444214	4186.958496	1285.669312	3.628121
729.538147	1158.240112	4289.356934	1272.016113	3.633720
729.858948	1194.648438	4243.846191	1306.148926	3.656716
730.179810	1153.689087	4227.917480	1246.985352	3.034786
730.500549	1226.505737	4202.886719	1328.904175	3.440367
730.821228	1180.995239	4095.937500	1267.465088	2.966434
731.141846	1155.964600	4225.642090	1283.393677	4.151220
731.462402	1235.607788	4250.672852	1274.291626	1.283018
731.782898	1167.342163	4241.570801	1262.914063	3.108809
732.103455	1249.260864	4223.366699	1287.944824	1.300692
732.423889	1235.607788	4159.651855	1249.260864	0.466924
732.744263	1178.719727	4243.846191	1297.046875	3.860433
733.064636	1237.883301	4264.326172	1246.985352	0.300751
733.384888	1201.474976	4202.886719	1349.383789	4.927975
733.705200	1190.097412	4221.091309	1219.679199	0.975976
734.025330	1208.301514	4234.744141	1237.883301	0.977444
734.345520	1224.230225	4330.315918	1376.690063	4.908423
734.665527	1210.577026	4166.478516	1310.699951	3.387221
734.985596	1206.026001	4086.835449	1262.914063	1.974725
735.305542	1171.893188	4180.131836	1326.628662	5.143723
735.625549	1158.240112	4025.396240	1297.046875	4.841269
735.945435	1140.035889	3934.375488	1299.322388	5.700327
736.265259	1219.679199	3995.814453	1258.363037	1.393442
736.585083	1201.474976	3922.997803	1267.465088	2.424749
736.904785	1135.484863	3834.252441	1267.465088	4.890388
737.224426	1196.923950	3888.864990	1262.914063	2.451395
737.544128	1155.964600	3904.793701	1244.709839	3.228474
737.863708	1194.648438	3818.323975	1256.087524	2.341718
738.183289	1153.689087	3816.048340	1208.301514	2.051279
738.502808	1246.985352	3893.416016	1262.914063	0.601894
738.822205	1185.546387	3761.435791	1287.944824	3.975265
739.141541	1178.719727	3970.783691	1276.567139	3.504483
739.460938	1217.403687	3784.191162	1335.730713	4.609927
739.780212	1190.097412	3970.783691	1365.312500	6.301146
740.099426	1228.781250	4007.192139	1333.455200	3.767404
740.418640	1206.026001	3988.988037	1306.148926	3.597711
740.737793	1149.138062	4041.324951	1258.363037	3.776553
741.056885	1169.617676	3991.263428	1353.934937	6.532261
741.375977	1174.168701	3913.895752	1285.669312	4.069771
741.694946	1160.515625	3995.814453	1262.914063	3.611557
742.013855	1199.199463	3888.864990	1317.526489	4.399321
742.332703	1137.760376	3781.915527	1278.842651	5.335628
742.651550	1228.781250	3629.455566	1319.802124	3.791471
742.970398	1158.240112	3611.251465	1401.720825	9.925789
743.289124	1169.617676	3702.272461	1224.230225	2.156336
743.607788	1196.923950	3761.435791	1233.332275	1.419698
743.926453	1190.097412	3524.781738	1319.802124	5.555557
744.245056	1083.147949	3711.374512	1262.914063	6.839826
744.563599	1158.240112	3554.363525	1347.108276	7.882238
744.882141	1171.893188	3652.210938	1306.148926	5.412844
745.200500	1135.484863	3568.016602	1358.485962	9.167449
745.518860	1240.158813	3618.078125	1281.118164	1.722487
745.837219	1130.933838	3508.853027	1317.526489	7.846888
746.155518	1167.342163	3593.047363	1310.699951	5.909943
746.473755	1144.586914	3458.791504	1338.006226	8.357918
746.791992	1240.158813	3572.567627	1308.424438	2.926830
747.110107	1155.964600	3458.791504	1351.659302	8.498020
747.428162	1251.536499	3486.097900	1258.363037	0.305498
747.746216	1149.138062	3495.199951	1274.291626	5.334623
748.064148	1158.240112	3438.312012	1385.792114	9.980037
748.382080	1192.372925	3524.781738	1340.281738	6.341462
748.700073	1119.556274	3508.853027	1315.250977	8.190473
749.017822	1153.689087	3431.485352	1260.638550	4.695304
749.335632	1126.382813	3454.240479	1292.495850	7.135876
749.653320	1206.026001	3538.434814	1324.353149	5.073174
749.971008	1174.168701	3529.332764	1369.863525	8.309180
750.288696	1183.270874	3522.506104	1312.975464	5.544743
750.606262	1105.903076	3595.322754	1253.812012	5.941503
750.923828	1187.821899	3497.475586	1319.802124	5.714286
751.241272	1210.577026	3620.353516	1310.699951	4.154864
751.558716	1199.199463	3533.883789	1358.485962	6.822614
751.876038	1215.128052	3438.312012	1326.628662	5.015357
752.193481	1174.168701	3351.842041	1308.424438	6.165100
752.510681	1137.760376	3422.383301	1367.588013	10.059762
752.827942	1176.444214	3417.832275	1283.393677	4.771573
753.145081	1124.107300	3486.097900	1310.699951	7.899805
753.462219	1151.413574	3345.015625	1374.414551	10.165973
753.779297	1185.546387	3504.302002	1369.863525	7.948968
754.096375	1105.903076	3379.148438	1319.802124	9.409413
754.413330	1201.474976	3349.566650	1397.169800	9.110170
754.730286	1140.035889	3433.760986	1449.506714	13.492063
755.047119	1192.372925	3445.138428	1454.057739	11.616158
755.363892	1085.423462	3342.739990	1403.996338	14.112903
755.680725	1155.964600	3342.739990	1403.996338	11.342351
755.997498	1203.750488	3269.923340	1376.690063	8.370044
756.314148	1219.679199	3306.331787	1406.271851	8.942200
756.630737	1183.270874	3345.015625	1369.863525	8.631577
756.947327	1165.066650	3242.617188	1388.067749	10.733847
757.263855	1174.168701	3253.994629	1408.547363	11.269148
757.580261	1187.821899	3292.678711	1506.394775	15.135132
757.896729	1208.301514	3333.637939	1353.934937	6.852252
758.213074	1180.995239	3420.107666	1401.720825	9.857727
758.529419	1149.138062	3263.096924	1469.986450	15.177608
758.845642	1192.372925	3367.770752	1467.710938	12.656903
759.161865	1199.199463	3372.321777	1476.812988	12.774869
759.478149	1246.985352	3451.965088	1492.741699	11.145515
759.794189	1233.332275	3424.658691	1460.884399	10.384218
760.110229	1162.791138	3442.863037	1524.598877	15.868261
760.426270	1215.128052	3522.506104	1556.456177	14.792901
760.742249	1192.372925	3515.679688	1481.364014	12.438784
761.058105	1162.791138	3472.444824	1545.078613	16.551722
761.374023	1187.821899	3611.251465	1510.945801	13.333331
761.689819	1092.250000	3411.005615	1540.527588	19.332680
762.005554	1192.372925	3449.689453	1613.344238	18.649195
762.321289	1192.372925	3540.710449	1467.710938	11.724807
762.636902	1206.026001	3486.097900	1542.803101	14.770460
762.952515	1126.382813	3599.874023	1547.354126	17.019318
763.268127	1203.750488	3563.465576	1622.446289	17.743490
763.583618	1151.413574	3674.966064	1636.099487	19.206491
763.899048	1185.546387	4127.794922	1729.395752	18.484140
764.214478	1133.209351	4373.550781	1754.426514	19.171350
764.529785	1183.270874	4689.848145	1834.069824	18.559380
764.845093	1201.474976	4912.849609	1806.763550	16.309013
765.160400	1301.597900	4896.920898	1859.100464	15.506328
765.475586	1187.821899	4749.011719	1900.059814	19.999998
765.790771	1178.719727	4357.622559	1918.264038	23.264137
766.105835	1119.556274	4337.142578	1836.345337	22.277227
766.420837	1142.311401	4250.672852	1845.447388	22.620792
766.735840	1190.097412	4050.427002	1756.702026	19.809067
767.050842	1178.719727	3802.395264	1777.181763	22.810062
767.365662	1242.434326	3706.823486	1822.692139	23.545706
767.680542	1137.760376	3613.527100	1690.711914	22.334558
767.995300	1103.627563	3624.904541	1758.977539	25.992781
768.309998	1176.444214	3597.598389	1649.752563	19.548872
768.624817	1158.240112	3445.138428	1690.711914	23.283579
768.939392	1226.505737	3536.159424	1658.854614	18.719208
769.254028	1183.270874	3367.770752	1656.579102	21.666662
769.568481	1210.577026	3363.219727	1677.058838	21.670193
769.882935	1183.270874	3297.229736	1661.130127	22.604944
770.197388	1194.648438	3226.688477	1672.507813	23.516237
770.511841	1140.035889	3240.341553	1697.538574	26.543884
770.826172	1240.158813	3290.403076	1733.946899	24.084356
771.140442	1251.536499	3215.310791	1715.742676	23.638470
771.454651	1140.035889	3267.647949	1667.956787	24.812836
771.768860	1178.719727	3197.106689	1640.650513	22.886135
772.082886	1153.689087	3110.636963	1761.253052	31.046507
772.397034	1155.964600	3208.484375	1654.303589	24.279375
772.711060	1165.066650	3203.933350	1733.946899	27.901787
773.025024	1196.923950	3083.330566	1683.885376	25.814234
773.338928	1178.719727	3035.544678	1679.334351	26.960787
773.652771	1176.444214	3183.453613	1665.681274	24.376421
773.966614	1171.893188	3096.983887	1713.467163	28.132387
774.280457	1178.719727	3037.820313	1679.334351	26.927786
774.594116	1128.658325	2985.483398	1633.823975	27.205883
774.907776	1124.107300	2990.034424	1638.375000	27.560974
775.221375	1119.556274	2951.350586	1652.028076	29.068317
775.534912	1183.270874	2942.248291	1663.405762	27.296251
775.848450	1224.230225	2960.452637	1772.630737	31.585844
776.161926	1137.760376	2992.309814	1665.681274	28.466261
776.475342	1174.168701	2928.595215	1677.058838	28.664076
776.788696	1192.372925	3010.513916	1658.854614	25.657068
777.101990	1231.056763	2903.564453	1672.507813	26.394560
777.415283	1235.607788	2787.512939	1613.344238	24.340176
777.728516	1256.087524	2876.258301	1724.844727	28.932579
778.041626	1210.577026	2885.360352	1708.916138	29.755438
778.354736	1171.893188	2862.605225	1631.548462	27.187082
778.667725	1251.536499	2821.645752	1683.885376	27.536228
778.980774	1135.484863	2880.809326	1649.752563	29.465450
779.293640	1183.270874	2778.410889	1699.814087	32.382313
779.606567	1206.026001	2785.237549	1642.926025	27.665707
779.919434	1180.995239	2848.952148	1638.375000	27.421556
780.232239	1169.617676	2817.094727	1654.303589	29.419889
780.544983	1158.240112	2810.268311	1640.650513	29.201099
780.857666	1272.016113	2785.237549	1715.742676	29.323307
781.170227	1217.403687	2807.992676	1613.344238	24.892700
781.482849	1219.679199	2855.778564	1672.507813	27.677330
781.795410	1190.097412	2753.380127	1688.436401	31.877728
782.107910	1183.270874	2730.625000	1665.681274	31.176470
782.420288	1206.026001	2712.420898	1674.783325	31.117825
782.732666	1180.995239	2641.879639	1688.436401	34.735203
783.044983	1126.382813	2707.869873	1670.232300	34.388489
783.357300	1144.586914	2805.717041	1667.956787	31.506855
783.669495	1171.893188	2598.644775	1695.262939	36.682613
783.981689	1121.831787	2571.338623	1665.681274	37.519623
784.293762	1126.382813	2639.604248	1731.671387	40.000000
784.605835	1196.923950	2628.226563	1743.048950	38.155804
784.917908	1187.821899	2666.910400	1738.497925	37.230770
785.229858	1171.893188	2578.165039	1572.384888	28.478968
785.541748	1180.995239	2578.165039	1692.987427	36.644951
785.853577	1219.679199	2566.787354	1658.854614	32.601349
786.165405	1124.107300	2596.369141	1656.579102	36.166924
786.477173	1233.332275	2621.399902	1677.058838	31.967215
786.788879	1192.372925	2616.848877	1652.028076	32.268368
787.100525	1144.586914	2539.481201	1622.446289	34.257748
787.412109	1180.995239	2582.716064	1636.099487	32.467537
787.723694	1224.230225	2605.471436	1688.436401	33.607903
788.035156	1233.332275	2610.022461	1595.140137	26.280994
788.346558	1208.301514	2630.501953	1708.916138	35.200005
788.658081	1221.954712	2553.134277	1697.538574	35.726501
788.969360	1133.209351	2782.961914	1722.569214	35.724136
789.280640	1185.546387	2712.420898	1724.844727	35.320412
789.591919	1212.852539	2776.135498	1656.579102	28.384277
789.903076	1192.372925	2894.462402	1756.702026	33.155079
790.214172	1219.679199	2755.655762	1727.120239	33.037029
790.525269	1171.893188	2719.247314	1695.262939	33.823528
790.836365	1160.515625	2769.308838	1724.844727	35.077789
791.147339	1196.923950	2655.532715	1652.028076	31.201246
791.458191	1144.586914	2616.848877	1715.742676	38.794437
791.769104	1153.689087	2557.685303	1656.579102	35.818474
792.079895	1180.995239	2550.858887	1679.334351	36.378738
792.390686	1185.546387	2534.930176	1622.446289	32.377735
792.701416	1185.546387	2548.583252	1679.334351	36.227043
793.012085	1199.199463	2537.205811	1574.660400	28.061222
793.322693	1169.617676	2434.807373	1540.527588	29.316545
793.633240	1140.035889	2475.766602	1620.170776	35.945484
793.943787	1171.893188	2505.348389	1499.568237	24.573383
794.254272	1167.342163	2434.807373	1588.313477	33.213638
794.564636	1176.444214	2350.613037	1558.731689	32.558136
794.875000	1133.209351	2519.001465	1545.078613	29.720856
795.185303	1149.138062	2446.184814	1617.895264	36.140347
795.495544	1176.444214	2409.776611	1624.721802	36.346859
795.805786	1221.954712	2402.949951	1597.415649	31.791910
796.115906	1203.750488	2441.633789	1658.854614	36.764702
796.426025	1130.933838	2405.225586	1620.170776	38.392853
796.736023	1192.372925	2523.552490	1672.507813	36.068378
797.045959	1185.546387	2500.797363	1629.272949	33.737026
797.355896	1153.689087	2644.155273	1704.365112	36.946564
797.665833	1185.546387	2559.960938	1640.650513	33.112579
797.975708	1185.546387	2610.022461	1601.966675	29.233225
798.285461	1165.066650	2578.165039	1711.191650	38.647343
798.595154	1142.311401	2453.011475	1652.028076	38.888885
798.904846	1165.066650	2546.307861	1624.721802	33.278412
799.214478	1151.413574	2612.297852	1547.354126	27.102800
799.524109	1140.035889	2457.562500	1597.415649	34.715031
799.833557	1201.474976	2437.082764	1601.966675	32.412525
800.143005	1158.240112	2343.786377	1679.334351	43.953934
800.452393	1146.862427	2437.082764	1579.211426	33.509705
800.761780	1183.270874	2325.582275	1608.793213	37.250992
801.071106	1169.617676	2375.643799	1554.180664	31.886787
801.380371	1142.311401	2346.062012	1588.313477	37.051037
801.689575	1160.515625	2309.653564	1567.833862	35.445549
801.998718	1146.862427	2325.582275	1617.895264	39.961391
802.307800	1183.270874	2321.031250	1588.313477	35.599991
802.616882	1165.066650	2393.847900	1649.752563	39.444443
802.925903	1155.964600	2293.724854	1517.772339	31.799997
803.234863	1203.750488	2300.551514	1579.211426	34.232365
803.543701	1174.168701	2286.898438	1538.252075	32.719837
803.852539	1155.964600	2314.204590	1508.670288	30.451866
804.161316	1110.454102	2248.214600	1551.905151	38.799999
804.470032	1174.168701	2327.857666	1533.701050	31.163715
804.778809	1153.689087	2177.673340	1506.394775	34.444443
805.087341	1190.097412	2293.724854	1499.568237	28.041241
805.395935	1140.035889	2277.796387	1533.701050	34.600002
805.704468	1183.270874	2268.694336	1574.660400	36.058693
806.012939	1130.933838	2325.582275	1576.935913	37.333332
806.321350	1240.158813	2214.081787	1495.017212	26.168230
806.629761	1203.750488	2398.398926	1620.170776	34.857140
806.938049	1151.413574	2273.245361	1563.282837	36.713993
807.246277	1235.607788	2330.133301	1570.109375	30.561333
807.554504	1140.035889	2350.613037	1579.211426	36.278194
807.862671	1185.546387	2409.776611	1565.558350	31.040890
808.170715	1194.648438	2282.347412	1583.762451	35.774052
808.478821	1190.097412	2241.387939	1620.170776	40.909088
808.786804	1174.168701	2350.613037	1617.895264	37.717598
809.094727	1226.505737	2282.347412	1608.793213	36.206894
809.402649	1210.577026	2248.214600	1549.629639	32.675438
809.710510	1206.026001	2327.857666	1667.956787	41.176479
810.018311	1194.648438	2334.684326	1526.874512	29.141720
810.326050	1142.311401	2252.765625	1579.211426	39.344261
810.633667	1137.760376	2220.908203	1533.701050	36.554630
810.941345	1185.546387	2252.765625	1499.568237	29.424305
811.248901	1190.097412	2241.387939	1515.496826	30.952377
811.556396	1135.484863	2127.612061	1551.905151	41.972469
811.863892	1130.933838	2209.530762	1444.955688	29.113920
812.171326	1187.821899	2189.051025	1510.945801	32.272724
812.478699	1224.230225	2166.295898	1604.242188	40.338161
812.786011	1242.434326	2136.714111	1504.119263	29.262089
813.093262	1174.168701	2148.091553	1588.313477	42.523365
813.400391	1210.577026	2098.030273	1485.915039	31.025637
813.707642	1274.291626	2111.683350	1524.598877	29.891298
814.014709	1258.363037	2132.163086	1549.629639	33.333324
814.321716	1158.240112	2118.509766	1431.302612	28.436024
814.628723	1246.985352	2095.754639	1513.221313	31.367294
814.935669	1203.750488	2223.183838	1535.976563	32.589287
815.242554	1174.168701	2166.295898	1542.803101	37.155960
815.549438	1224.230225	2166.295898	1444.955688	23.429945
815.856201	1199.199463	2145.816162	1426.751587	24.038465
816.162964	1196.923950	2116.234375	1497.292725	32.673271
816.469604	1185.546387	2034.315552	1508.670288	38.069702
816.776184	1171.893188	2159.469238	1567.833862	40.092171
817.082825	1162.791138	2225.459229	1547.354126	36.188438
817.389343	1130.933838	2259.592041	1388.067749	22.782267
817.695801	1176.444214	2136.714111	1581.486938	42.180092
818.002197	1178.719727	2161.744873	1492.741699	31.944450
818.308533	1153.689087	2136.714111	1558.731689	41.203693
818.614868	1231.056763	2138.989502	1499.568237	29.573938
818.921143	1146.862427	2223.183838	1492.741699	32.135315
819.227356	1094.525513	2234.561523	1574.660400	42.115765
819.533447	1206.026001	2223.183838	1542.803101	33.109619
819.839539	1196.923950	2305.102539	1663.405762	42.094463
820.145569	1212.852539	2284.622803	1590.588989	35.244164
820.451538	1208.301514	2341.510986	1636.099487	37.751007
820.757568	1171.893188	2537.205811	1699.814087	38.666668
821.063416	1169.617676	2698.767578	1761.253052	38.690475
821.369263	1180.995239	2721.522949	1702.089600	33.825706
821.675049	1146.862427	2764.757813	1772.630737	38.677921
821.980713	1199.199463	2999.136475	1758.977539	31.099871
822.286438	1149.138062	3185.729004	1879.580200	35.865925
822.592102	1192.372925	3863.834229	2098.030273	33.901196
822.897583	1224.230225	5477.178711	2605.471436	32.477264
823.203125	1235.607788	7759.525879	3374.597412	32.786888
823.508545	1199.199463	9411.553711	4048.151611	34.691051
823.813965	1151.413574	10276.251953	4289.356934	34.389030
824.119263	1199.199463	9281.849609	4082.284424	35.670044
824.424622	1133.209351	8112.231445	3570.292236	34.920124
824.729858	1142.311401	6981.297852	3131.116699	34.060799
825.035095	1176.444214	6030.129883	2860.329590	34.692924
825.340149	1167.342163	5169.983398	2653.257324	37.123367
825.645264	1265.189575	4794.522461	2412.052002	32.495159
825.950256	1210.577026	4519.184082	2286.898438	32.530952
826.255310	1192.372925	4196.060547	2264.143311	35.681820
826.560242	1185.546387	3952.579590	2179.948975	35.937500
826.865112	1135.484863	3752.333740	1981.978638	32.347828
827.169922	1140.035889	3663.588379	2082.101563	37.330933
827.474670	1169.617676	3561.189941	1993.356201	34.443390
827.779419	1212.852539	3950.304199	2195.877686	35.910229
828.084045	1199.199463	4453.194336	2455.286865	38.601395
828.388672	1167.342163	4865.063477	2584.991699	38.338467
828.693176	1130.933838	5024.350098	2516.726074	35.593220
828.997681	1208.301514	4607.929688	2364.266113	34.002678
829.302124	1112.729614	4050.427002	2098.030273	33.539898
829.606567	1119.556274	3556.638916	2000.182739	36.134453
829.910828	1199.199463	3338.188965	1995.631714	37.234043
830.215149	1215.128052	3069.677490	1806.763550	31.901846
830.519348	1144.586914	2914.942139	1761.253052	34.832905
830.823547	1099.076538	2712.420898	1647.477051	33.991535
831.127686	1167.342163	2707.869873	1631.548462	30.132940
831.431763	1155.964600	2523.552490	1620.170776	33.943424
831.735779	1210.577026	2478.042236	1713.467163	39.676838
832.039734	1176.444214	2366.541748	1586.037964	34.416821
832.343628	1149.138062	2243.663574	1533.701050	35.135132
832.647461	1124.107300	2232.285889	1558.731689	39.219707
832.951233	1155.964600	2277.796387	1588.313477	38.539547
833.255127	1180.995239	2334.684326	1601.966675	36.489159
833.558777	1146.862427	2230.010498	1574.660400	39.495796
833.862366	1196.923950	2468.940186	1554.180664	28.085861
834.165955	1117.280762	2575.889648	1626.997314	34.945389
834.469482	1155.964600	3026.442627	1827.243164	35.888077
834.773010	1185.546387	3358.668701	1934.192627	34.450256
835.076416	1167.342163	3652.210938	2013.835938	34.065937
835.379822	1199.199463	3549.812500	1943.294800	31.655373
835.683105	1149.138062	3376.872803	2002.458252	38.304386
835.986389	1174.168701	3046.922363	1845.447388	35.844475
836.289612	1121.831787	2926.319824	1704.365112	32.282471
836.592773	1103.627563	2712.420898	1749.875488	40.169727
836.895874	1212.852539	2591.818115	1615.619751	29.207924
837.198914	1133.209351	2505.348389	1640.650513	36.981758
837.501892	1165.066650	2357.439453	1513.221313	29.198475
837.804871	1187.821899	2398.398926	1611.068726	34.962402
838.107666	1121.831787	2202.704102	1506.394775	35.578945
838.410583	1183.270874	2120.785400	1506.394775	34.466015
838.713379	1153.689087	2138.989502	1458.608887	30.946886
839.016052	1219.679199	2000.182739	1410.822876	24.489790
839.318787	1146.862427	1888.682251	1492.741699	46.625778
839.621338	1224.230225	1904.610962	1394.894287	25.083612
839.923889	1206.026001	1886.406738	1456.333252	36.789291
840.226440	1196.923950	1986.529663	1474.537476	35.158501
840.528931	1210.577026	1970.601074	1451.782227	31.736523
840.831299	1226.505737	2123.060791	1483.639526	28.680201
841.133606	1174.168701	2152.642578	1515.496826	34.883724
841.435913	1194.648438	2150.367188	1415.373901	23.095232
841.738220	1201.474976	2123.060791	1542.803101	37.037041
842.040405	1231.056763	2136.714111	1419.924927	20.854263
842.342529	1228.781250	2063.897461	1438.129150	25.068115
842.644592	1194.648438	1995.631714	1467.710938	34.090912
842.946594	1199.199463	1870.478149	1431.302612	34.576271
843.248596	1249.260864	1950.121338	1449.506714	28.571428
843.550598	1162.791138	1795.385864	1424.476074	41.366917
843.852478	1119.556274	1804.488037	1447.231201	47.840523
844.154236	1210.577026	1738.497925	1388.067749	33.620705
844.455994	1178.719727	1740.773438	1347.108276	29.959513
844.757690	1244.709839	1804.488037	1390.343262	26.016273
845.059326	1233.332275	1779.457275	1358.485962	22.916674
845.360962	1137.760376	1765.804199	1319.802124	28.985518
845.662476	1160.515625	1702.089600	1342.557251	33.613438
845.963989	1135.484863	1674.783325	1246.985352	20.675098
846.265381	1237.883301	1661.130127	1335.730713	23.118286
846.566772	1105.903076	1624.721802	1324.353149	42.105278
846.868042	1171.893188	1647.477051	1328.904175	33.014362
847.169373	1128.658325	1690.711914	1219.679199	16.194342
847.470581	1176.444214	1683.885376	1324.353149	29.147997
847.771729	1208.301514	1613.344238	1276.567139	16.853931
848.072815	1194.648438	1665.681274	1317.526489	26.086939
848.373901	1183.270874	1533.701050	1310.699951	36.363613
848.674866	1171.893188	1645.201538	1301.597900	27.403851
848.975891	1165.066650	1683.885376	1249.260864	16.228060
849.276794	1221.954712	1699.814087	1237.883301	3.333321
849.577637	1235.607788	1677.058838	1342.557251	24.226801
849.878357	1151.413574	1506.394775	1328.904175	50.000000
850.179077	1194.648438	1622.446289	1333.455200	32.446812
850.479736	1146.862427	1667.956787	1274.291626	24.454151
850.780396	1190.097412	1599.691162	1285.669312	23.333340
851.080994	1176.444214	1613.344238	1283.393677	24.479162
851.381470	1133.209351	1556.456177	1342.557251	49.462368
851.681946	1080.872437	1633.823975	1285.669312	37.037037
851.982361	1142.311401	1604.242188	1265.189575	26.600992
852.282715	1155.964600	1558.731689	1303.873413	36.723164
852.583008	1192.372925	1563.282837	1342.557251	40.490784
852.883240	1206.026001	1595.140137	1242.434326	9.356721
853.183411	1174.168701	1661.130127	1233.332275	12.149540
853.483521	1208.301514	1510.945801	1328.904175	39.849640
853.783630	1160.515625	1661.130127	1299.322388	27.727276
854.083679	1196.923950	1551.905151	1276.567139	22.435888
854.383667	1187.821899	1570.109375	1315.250977	33.333313
854.683533	1215.128052	1563.282837	1303.873413	25.490204
854.983337	1178.719727	1554.180664	1315.250977	36.363636
855.283203	1171.893188	1604.242188	1338.006226	38.421051
855.582886	1176.444214	1542.803101	1265.189575	24.223614
855.882629	1233.332275	1510.945801	1285.669312	18.852480
856.182312	1169.617676	1531.425537	1256.087524	23.899384
856.481873	1140.035889	1654.303589	1267.465088	24.778769
856.781372	1183.270874	1570.109375	1276.567139	24.117626
857.080872	1178.719727	1551.905151	1310.699951	35.365856
857.380310	1142.311401	1597.415649	1260.638550	26.000010
857.679688	1133.209351	1579.211426	1272.016113	31.122448
857.979004	1144.586914	1515.496826	1319.802124	47.239292
858.278259	1167.342163	1510.945801	1265.189575	28.476826
858.577454	1165.066650	1549.629639	1326.628662	42.011845
858.876648	1183.270874	1522.323364	1281.118164	28.859039
859.175720	1212.852539	1551.905151	1333.455200	35.570484
859.474792	1146.862427	1529.150024	1353.934937	54.166683
859.773743	1235.607788	1608.793213	1331.179688	25.609762
860.072693	1130.933838	1592.864502	1260.638550	28.078827
860.371521	1215.128052	1538.252075	1312.975464	30.281689
860.670349	1162.791138	1567.833862	1312.975464	37.078640
860.969116	1190.097412	1542.803101	1233.332275	12.258057
861.267883	1180.995239	1524.598877	1328.904175	43.046383
861.566589	1231.056763	1588.313477	1335.730713	29.299366
861.865112	1130.933838	1558.731689	1256.087524	29.255333
862.163635	1196.923950	1581.486938	1242.434326	11.834310
862.462158	1144.586914	1565.558350	1246.985352	24.324320
862.760620	1176.444214	1520.047852	1278.842651	29.801325
863.059021	1262.914063	1492.741699	1212.852539	-21.782204
863.357361	1180.995239	1540.527588	1301.597900	33.544315
863.655640	1089.974487	1535.976563	1338.006226	55.612240
863.953857	1158.240112	1545.078613	1192.372925	8.823530
864.251953	1226.505737	1531.425537	1237.883301	3.731330
864.550110	1174.168701	1574.660400	1306.148926	32.954548
864.848206	1194.648438	1574.660400	1267.465088	19.161673
865.146179	1167.342163	1520.047852	1278.842651	31.612898
865.444092	1176.444214	1531.425537	1256.087524	22.435915
865.741943	1278.842651	1576.935913	1274.291626	-1.526712
866.039795	1180.995239	1579.211426	1285.669312	26.285740
866.337646	1233.332275	1581.486938	1269.740601	10.457515
866.635376	1240.158813	1485.915039	1297.046875	23.148167
866.933044	1206.026001	1611.068726	1281.118164	18.539320
867.230652	1212.852539	1479.088501	1283.393677	26.495722
867.528198	1228.781250	1508.670288	1262.914063	12.195123
867.825745	1224.230225	1535.976563	1281.118164	18.248150
868.123230	1233.332275	1588.313477	1290.220337	16.025654
868.420593	1217.403687	1535.976563	1240.158813	7.142832
868.717896	1178.719727	1526.874512	1235.607788	16.339876
869.015198	1121.831787	1504.119263	1201.474976	20.833324
869.312439	1167.342163	1488.190552	1242.434326	23.404251
869.609619	1174.168701	1531.425537	1269.740601	26.751595
869.906738	1174.168701	1426.751587	1249.260864	29.729712
870.203796	1146.862427	1533.701050	1130.933838	-4.117631
870.500854	1130.933838	1542.803101	1235.607788	25.414364
870.797791	1126.382813	1499.568237	1319.802124	51.829277
871.094666	1199.199463	1495.017212	1290.220337	30.769239
871.391602	1174.168701	1624.721802	1358.485962	40.909111
871.688293	1212.852539	1531.425537	1276.567139	20.000000
871.985107	1187.821899	1531.425537	1217.403687	8.609277
872.281738	1217.403687	1529.150024	1217.403687	0.000000
872.578369	1228.781250	1490.466064	1249.260864	7.826061
872.874939	1119.556274	1533.701050	1253.812012	32.417587
873.171509	1158.240112	1481.364014	1326.628662	52.112686
873.467957	1169.617676	1590.588989	1235.607788	15.675679
873.764343	1115.005249	1554.180664	1265.189575	34.196888
874.060669	1178.719727	1558.731689	1290.220337	29.341343
874.356995	1178.719727	1645.201538	1244.709839	14.146342
874.653198	1297.046875	1604.242188	1228.781250	-22.222221
874.949463	1185.546387	1554.180664	1285.669312	27.160503
875.245544	1119.556274	1590.588989	1317.526489	42.028973
875.541626	1137.760376	1515.496826	1260.638550	32.530132
875.837646	1251.536499	1504.119263	1240.158813	-4.504538
876.133606	1165.066650	1510.945801	1231.056763	19.078951
876.429565	1192.372925	1479.088501	1276.567139	29.365065
876.725403	1174.168701	1547.354126	1260.638550	23.170746
877.021179	1169.617676	1517.772339	1285.669312	33.333355
877.316956	1203.750488	1592.864502	1262.914063	15.204689
877.612610	1185.546387	1604.242188	1246.985352	14.673891
877.908203	1121.831787	1570.109375	1299.322388	39.593906
878.203857	1135.484863	1540.527588	1246.985352	27.528080
878.499390	1146.862427	1520.047852	1274.291626	34.146351
878.794800	1153.689087	1563.282837	1203.750488	12.222208
879.090271	1144.586914	1561.007324	1262.914063	28.415310
879.385559	1167.342163	1590.588989	1360.761475	45.698940
879.680847	1142.311401	1622.446289	1312.975464	35.545025
879.976196	1178.719727	1640.650513	1317.526489	30.049255
880.271301	1169.617676	1695.262939	1312.975464	27.272726
880.566467	1178.719727	1786.283813	1262.914063	13.857688
880.861572	1185.546387	1806.763550	1281.118164	15.384601
881.156555	1178.719727	1802.212524	1392.618774	34.306580
881.451477	1160.515625	2179.948975	1533.701050	36.607143
881.746460	1185.546387	2655.532715	1615.619751	29.256964
882.041321	1124.107300	3208.484375	1806.763550	32.751095
882.336121	1231.056763	4000.365479	2036.591064	29.087921
882.630798	1178.719727	4414.510254	2173.122314	30.731365
882.925537	1208.301514	4535.112793	2198.153076	29.753763
883.220215	1226.505737	4314.387207	2166.295898	30.434788
883.514771	1192.372925	3982.161377	2088.927979	32.137024
883.809326	1162.791138	3761.435791	2041.142212	33.800354
884.103760	1253.812012	3538.434814	1843.171875	25.796812
884.398132	1221.954712	3297.229736	1897.784302	32.565784
884.692505	1160.515625	3149.320801	1813.590088	32.837528
884.986816	1262.914063	2892.187012	1729.395752	28.631279
885.281067	1135.484863	2858.054199	1601.966675	27.080582
885.575256	1185.546387	2537.205811	1556.456177	27.441069
885.869385	1242.434326	2368.817139	1595.140137	31.313139
886.163452	1217.403687	2161.744873	1442.680176	23.855413
886.457458	1160.515625	2132.163086	1481.364014	33.021069
886.751465	1244.709839	2036.591064	1440.404663	24.712648
887.045410	1162.791138	1913.713013	1429.027100	35.454548
887.339233	1190.097412	1893.233276	1410.822876	31.391581
887.632996	1130.933838	1743.048950	1290.220337	26.022310
887.926758	1160.515625	1690.711914	1335.730713	33.047211
888.220398	1153.689087	1697.538574	1360.761475	38.075314
888.514099	1212.852539	1658.854614	1410.822876	44.387760
888.807678	1135.484863	1749.875488	1297.046875	26.296301
889.101196	1153.689087	1622.446289	1342.557251	40.291256
889.394653	1146.862427	1636.099487	1297.046875	30.697683
889.688049	1208.301514	1608.793213	1312.975464	26.136360
889.981384	1215.128052	1481.364014	1367.588013	57.264977
890.274719	1217.403687	1561.007324	1274.291626	16.556269
890.567932	1196.923950	1554.180664	1256.087524	16.560522
>>>>>End Processed Spectral Data<<<<<
