Jaz Data File
++++++++++++++++++++++++++++++++++++
Date: Wed Feb 07 06:42:01 2024
User: jaz
Dark Spectrum Present: Yes
Reference Spectrum Present: Yes
Processed Spectrum Present: Yes
Spectrometers: JAZA3692
Integration Time (usec): 40000 (JAZA3692)
Spectra Averaged: 1 (JAZA3692)
Boxcar Smoothing: 0 (JAZA3692)
Correct for Electrical Dark: No (JAZA3692)
Strobe/Lamp Enabled: Yes (JAZA3692)
Correct for Detector Non-linearity: No (JAZA3692)
Correct for Stray Light: No (JAZA3692)
Number of Pixels in Processed Spectrum: 2048
>>>>>Begin Processed Spectral Data<<<<<
W	D	R	S	P
190.244385	0.000000	0.000000	0.000000	0.000000
190.627136	0.000000	0.000000	0.000000	0.000000
191.009842	1133.209351	1160.515625	1069.494751	-233.333191
191.392532	1219.679199	1183.270874	1094.525513	343.750183
191.775177	1244.709839	1165.066650	1149.138062	119.999939
192.157791	1153.689087	1171.893188	1076.321289	-425.002014
192.540390	1174.168701	1199.199463	1176.444214	9.090865
192.922943	1128.658325	1212.852539	1130.933838	2.702695
193.305481	1171.893188	1212.852539	1135.484863	-88.888924
193.687958	1210.577026	1221.954712	1146.862427	-559.996155
194.070419	1153.689087	1167.342163	1174.168701	150.000000
194.452866	1206.026001	1203.750488	1196.923950	400.000000
194.835251	1194.648438	1260.638550	1160.515625	-51.724133
195.217621	1242.434326	1187.821899	1137.760376	191.666916
195.599960	1226.505737	1178.719727	1153.689087	152.380692
195.982254	1228.781250	1260.638550	1165.066650	-200.000000
196.364517	1208.301514	1178.719727	1171.893188	123.076828
196.746750	1240.158813	1149.138062	1142.311401	107.500114
197.128952	1224.230225	1199.199463	1153.689087	281.817780
197.511139	1180.995239	1171.893188	1192.372925	-125.001343
197.893280	1224.230225	1187.821899	1167.342163	156.250153
198.275391	1192.372925	1224.230225	1244.709839	164.285461
198.657471	1206.026001	1251.536499	1176.444214	-64.999916
199.039520	1203.750488	1237.883301	1169.617676	-100.000000
199.421539	1208.301514	1210.577026	1101.352051	-4700.016113
199.803513	1180.995239	1153.689087	1212.852539	-116.667114
200.185471	1180.995239	1196.923950	1108.178589	-457.140900
200.567383	1221.954712	1244.709839	1112.729614	-480.002136
200.949265	1119.556274	1208.301514	1162.791138	48.717953
201.331131	1167.342163	1199.199463	1187.821899	64.285851
201.712967	1192.372925	1183.270874	1169.617676	250.001343
202.094742	1176.444214	1171.893188	1058.117188	2600.008057
202.476517	1226.505737	1240.158813	1208.301514	-133.334229
202.858231	1153.689087	1158.240112	1155.964600	50.000000
203.239944	1183.270874	1167.342163	1151.413574	199.999237
203.621582	1192.372925	1190.097412	1185.546387	300.000000
204.003235	1237.883301	1194.648438	1155.964600	189.473709
204.384827	1219.679199	1251.536499	1144.586914	-235.714539
204.766388	1167.342163	1228.781250	1212.852539	74.073975
205.147934	1185.546387	1176.444214	1194.648438	-99.998657
205.529449	1146.862427	1231.056763	1192.372925	54.054108
205.910904	1201.474976	1242.434326	1126.382813	-183.333389
206.292343	1117.280762	1201.474976	1142.311401	29.729643
206.673767	1267.465088	1233.332275	1153.689087	333.333221
207.055115	1176.444214	1237.883301	1135.484863	-66.666603
207.436462	1251.536499	1199.199463	1176.444214	143.478287
207.817780	1151.413574	1224.230225	1126.382813	-34.375053
208.199051	1235.607788	1217.403687	1162.791138	400.001343
208.580307	1080.872437	1219.679199	1094.525513	9.836031
208.961517	1212.852539	1187.821899	1149.138062	254.545944
209.342712	1174.168701	1215.128052	1140.035889	-83.333382
209.723846	1246.985352	1190.097412	1226.505737	35.999924
210.104965	1167.342163	1144.586914	1196.923950	-129.999832
210.486069	1224.230225	1194.648438	1174.168701	169.230896
210.867111	1128.658325	1231.056763	1149.138062	20.000048
211.248123	1233.332275	1201.474976	1178.719727	171.428680
211.629120	1115.005249	1212.852539	1099.076538	-16.279154
212.010071	1219.679199	1167.342163	1149.138062	134.782440
212.390991	1171.893188	1180.995239	1165.066650	-75.000000
212.771881	1126.382813	1187.821899	1160.515625	55.555534
213.152756	1208.301514	1265.189575	1190.097412	-31.999863
213.533569	1142.311401	1176.444214	1146.862427	13.333285
213.914368	1165.066650	1137.760376	1196.923950	-116.666595
214.295135	1215.128052	1174.168701	1140.035889	183.333389
214.675858	1128.658325	1151.413574	1167.342163	169.999619
215.056549	1203.750488	1160.515625	1153.689087	115.789429
215.437225	1124.107300	1199.199463	1183.270874	78.787949
215.817841	1212.852539	1237.883301	1078.596802	-536.362976
216.198441	1183.270874	1178.719727	1180.995239	50.001343
216.579025	1183.270874	1242.434326	1158.240112	-42.307812
216.959549	1206.026001	1199.199463	1089.974487	1700.005371
217.340057	1140.035889	1258.363037	1155.964600	13.461586
217.720535	1217.403687	1146.862427	1153.689087	90.322456
218.100967	1135.484863	1235.607788	1144.586914	9.090876
218.481369	1190.097412	1169.617676	1203.750488	-66.666267
218.861740	1226.505737	1185.546387	1130.933838	233.333527
219.242065	1231.056763	1274.291626	1176.444214	-126.315994
219.622391	1212.852539	1178.719727	1162.791138	146.666504
220.002670	1162.791138	1201.474976	1190.097412	70.588326
220.382919	1146.862427	1217.403687	1085.423462	-87.096497
220.763123	1262.914063	1233.332275	1121.831787	476.922760
221.143295	1226.505737	1165.066650	1171.893188	88.888931
221.523453	1165.066650	1130.933838	1099.076538	193.333359
221.903549	1162.791138	1160.515625	1130.933838	1400.005371
222.283630	1089.974487	1221.954712	1178.719727	67.241318
222.663696	1237.883301	1192.372925	1092.250000	320.000214
223.043701	1155.964600	1235.607788	1105.903076	-62.857258
223.423676	1158.240112	1206.026001	1103.627563	-114.285934
223.803635	1178.719727	1206.026001	1112.729614	-241.666473
224.183548	1190.097412	1165.066650	1165.066650	100.000000
224.563431	1196.923950	1253.812012	1162.791138	-59.999958
224.943283	1194.648438	1167.342163	1117.280762	283.332947
225.323105	1178.719727	1228.781250	1219.679199	81.818268
225.702881	1215.128052	1210.577026	1219.679199	-100.002686
226.082642	1187.821899	1246.985352	1196.923950	15.384583
226.462357	1203.750488	1226.505737	1183.270874	-89.999519
226.842041	1167.342163	1287.944824	1146.862427	-16.981165
227.221695	1233.332275	1233.332275	1206.026001	0.000000
227.601318	1151.413574	1233.332275	1151.413574	0.000000
227.980911	1183.270874	1283.393677	1155.964600	-27.272783
228.360474	1237.883301	1206.026001	1153.689087	264.285461
228.739990	1167.342163	1242.434326	1108.178589	-78.787949
229.119476	1137.760376	1226.505737	1165.066650	30.769241
229.498932	1126.382813	1338.006226	1165.066650	18.279564
229.878372	1199.199463	1385.792114	1146.862427	-28.048820
230.257736	1190.097412	1472.261963	1185.546387	-1.612898
230.637115	1133.209351	1426.751587	1135.484863	0.775191
231.016449	1190.097412	1372.139038	1149.138062	-22.499992
231.395737	1206.026001	1372.139038	1153.689087	-31.506807
231.774994	1199.199463	1299.322388	1176.444214	-22.727312
232.154221	1201.474976	1438.129150	1064.943726	-57.692307
232.533417	1171.893188	1240.158813	1226.505737	80.000069
232.912582	1201.474976	1347.108276	1162.791138	-26.562494
233.291702	1206.026001	1322.077637	1133.209351	-62.745045
233.670792	1201.474976	1285.669312	1149.138062	-62.162037
234.049866	1196.923950	1267.465088	1151.413574	-64.516075
234.428894	1144.586914	1347.108276	1110.454102	-16.853931
234.807892	1174.168701	1317.526489	1162.791138	-7.936481
235.186874	1219.679199	1422.200562	1194.648438	-12.359566
235.565781	1151.413574	1429.027100	1155.964600	1.639338
235.944687	1174.168701	1397.169800	1144.586914	-13.265310
236.323547	1135.484863	1347.108276	1237.883301	48.387104
236.702377	1160.515625	1342.557251	1185.546387	13.750021
237.081177	1155.964600	1388.067749	1167.342163	4.901943
237.459946	1119.556274	1417.649414	1215.128052	32.061047
237.838669	1267.465088	1344.832764	1178.719727	-114.705994
238.217361	1149.138062	1342.557251	1210.577026	31.764669
238.596039	1217.403687	1278.842651	1199.199463	-29.629770
238.974670	1160.515625	1315.250977	1212.852539	33.823502
239.353271	1208.301514	1383.516602	1158.240112	-28.571398
239.731842	1149.138062	1422.200562	1140.035889	-3.333366
240.110367	1180.995239	1335.730713	1208.301514	17.647068
240.488876	1187.821899	1422.200562	1183.270874	-1.941741
240.867340	1201.474976	1390.343262	1162.791138	-20.481913
241.245789	1219.679199	1438.129150	1194.648438	-11.458351
241.624176	1089.974487	1508.670288	1076.321289	-3.260887
242.002548	1171.893188	1413.098389	1135.484863	-15.094337
242.380890	1155.964600	1542.803101	1210.577026	14.117630
242.759186	1210.577026	1672.507813	1262.914063	11.330060
243.137451	1171.893188	1788.559326	1224.230225	8.487094
243.515686	1158.240112	1784.008301	1272.016113	18.181812
243.893890	1140.035889	1733.946899	1176.444214	6.130266
244.272049	1160.515625	1790.834839	1281.118164	19.133566
244.650192	1135.484863	1686.160889	1151.413574	2.892574
245.028290	1221.954712	1647.477051	1176.444214	-10.695208
245.406357	1103.627563	1642.926025	1119.556274	2.953598
245.784393	1171.893188	1654.303589	1212.852539	8.490561
246.162384	1208.301514	1570.109375	1231.056763	6.289319
246.540359	1219.679199	1661.130127	1187.821899	-7.216498
246.918289	1167.342163	1722.569214	1174.168701	1.229504
247.296204	1130.933838	1909.161987	1221.954712	11.695911
247.674057	1208.301514	2143.540527	1212.852539	0.486616
248.051895	1183.270874	2275.520752	1244.709839	5.624992
248.429703	1244.709839	2387.021240	1242.434326	-0.199202
248.807465	1153.689087	2341.510986	1240.158813	7.279688
249.185196	1185.546387	2177.673340	1246.985352	6.192652
249.562897	1178.719727	2038.866699	1246.985352	7.936507
249.940567	1199.199463	1929.641602	1242.434326	5.918999
250.318192	1174.168701	1925.090576	1178.719727	0.606058
250.695801	1203.750488	1790.834839	1190.097412	-2.325573
251.073349	1165.066650	1688.436401	1121.831787	-8.260864
251.450882	1155.964600	1697.538574	1199.199463	7.983187
251.828400	1203.750488	1793.110352	1171.893188	-5.405407
252.205872	1201.474976	1749.875488	1144.586914	-10.373451
252.583313	1169.617676	1752.151001	1269.740601	17.187502
252.960693	1101.352051	1881.855713	1267.465088	21.282801
253.338074	1151.413574	1906.886475	1162.791138	1.506019
253.715408	1185.546387	1897.784302	1217.403687	4.472845
254.092682	1180.995239	1836.345337	1196.923950	2.430565
254.469955	1180.995239	1774.906250	1219.679199	6.513427
254.847198	1190.097412	1642.926025	1283.393677	20.602997
255.224365	1165.066650	1706.640625	1203.750488	7.142854
255.601563	1217.403687	1638.375000	1162.791138	-12.972986
255.978683	1192.372925	1672.507813	1178.719727	-2.843617
256.355743	1140.035889	1636.099487	1169.617676	5.963305
256.732819	1183.270874	1713.467163	1174.168701	-1.716755
257.109894	1206.026001	1729.395752	1215.128052	1.739124
257.486877	1158.240112	1722.569214	1256.087524	17.338715
257.863831	1208.301514	1772.630737	1119.556274	-15.725792
258.240753	1171.893188	1861.375977	1206.026001	4.950495
258.617645	1178.719727	1834.069824	1240.158813	9.375002
258.994507	1112.729614	1961.498901	1199.199463	10.187675
259.371307	1171.893188	2070.723877	1215.128052	4.810123
259.748108	1128.658325	2202.704102	1196.923950	6.355933
260.124878	1112.729614	2380.194824	1228.781250	9.156199
260.501617	1169.617676	2614.573486	1208.301514	2.677164
260.878296	1162.791138	2728.349365	1262.914063	6.395350
261.254944	1194.648438	2960.452637	1297.046875	5.798969
261.631561	1135.484863	2883.084961	1249.260864	6.510414
262.008179	1117.280762	2639.604248	1283.393677	10.911801
262.384735	1174.168701	2341.510986	1267.465088	7.992205
262.761261	1124.107300	2189.051025	1192.372925	6.410256
263.137695	1105.903076	2050.244141	1226.505737	12.771091
263.514191	1174.168701	2070.723877	1194.648438	2.284270
263.890594	1190.097412	2107.132324	1185.546387	-0.496276
264.267029	1215.128052	1938.743774	1244.709839	4.088052
264.643341	1192.372925	2041.142212	1290.220337	11.528152
265.019653	1185.546387	1922.815063	1108.178589	-10.493840
265.395935	1169.617676	2007.009399	1208.301514	4.619563
265.772217	1212.852539	1986.529663	1201.474976	-1.470583
266.148407	1158.240112	1929.641602	1203.750488	5.899700
266.524597	1144.586914	2068.448486	1210.577026	7.142857
266.900726	1146.862427	2109.407715	1174.168701	2.836882
267.276855	1219.679199	2136.714111	1201.474976	-1.985118
267.652924	1085.423462	2327.857666	1281.118164	15.750911
268.028992	1140.035889	2298.276123	1206.026001	5.697446
268.404999	1217.403687	2239.112549	1312.975464	9.354111
268.781006	1194.648438	2223.183838	1294.771362	9.734514
269.156921	1174.168701	2268.694336	1244.709839	6.444905
269.532837	1231.056763	2266.418701	1315.250977	8.131863
269.908661	1203.750488	2273.245361	1231.056763	2.553194
270.284546	1160.515625	2264.143311	1224.230225	5.773197
270.660339	1146.862427	2316.480225	1233.332275	7.393001
271.036133	1183.270874	2227.734863	1169.617676	-1.307197
271.411835	1187.821899	2250.489990	1251.536499	5.995719
271.787537	1180.995239	2489.419678	1224.230225	3.304355
272.163239	1130.933838	2744.278076	1322.077637	11.847676
272.538849	1160.515625	2924.044189	1185.546387	1.419357
272.914459	1108.178589	2703.318604	1212.852539	6.562054
273.290070	1208.301514	2666.910400	1187.821899	-1.404051
273.665588	1190.097412	2571.338623	1265.189575	5.436571
274.041046	1142.311401	2594.093750	1287.944824	10.031354
274.416565	1226.505737	2464.388916	1228.781250	0.183823
274.791962	1167.342163	2525.828125	1196.923950	2.177556
275.167389	1124.107300	2402.949951	1260.638550	10.676157
275.542755	1203.750488	2482.593262	1272.016113	5.338078
275.918060	1178.719727	2514.450439	1260.638550	6.132885
276.293365	1155.964600	2532.654541	1233.332275	5.619833
276.668640	1158.240112	2377.919189	1324.353149	13.619406
277.043854	1087.698975	2421.154053	1187.821899	7.508534
277.419037	1215.128052	2503.072998	1294.771362	6.183751
277.794189	1194.648438	2564.511963	1283.393677	6.478400
278.169312	1183.270874	2625.950928	1258.363037	5.205046
278.544373	1115.005249	2539.481201	1260.638550	10.223640
278.919464	1251.536499	2491.695313	1299.322388	3.853207
279.294464	1151.413574	2553.134277	1244.709839	6.655838
279.669464	1133.209351	2498.521729	1272.016113	10.166667
280.044403	1146.862427	2466.664551	1203.750488	4.310348
280.419312	1190.097412	2414.327637	1246.985352	4.646833
280.794189	1167.342163	2582.716064	1219.679199	3.697753
281.169037	1158.240112	2559.960938	1201.474976	3.084413
281.543854	1196.923950	2591.818115	1308.424438	7.993473
281.918671	1196.923950	2716.971924	1292.495850	6.287426
282.293365	1171.893188	2883.084961	1237.883301	3.856383
282.668091	1206.026001	2880.809326	1212.852539	0.407607
283.042786	1192.372925	2949.074951	1322.077637	7.383421
283.417419	1192.372925	3076.504150	1308.424438	6.159418
283.792053	1217.403687	2949.074951	1285.669312	3.942182
284.166595	1221.954712	2773.859863	1290.220337	4.398827
284.541138	1126.382813	2801.166016	1287.944824	9.646742
284.915619	1199.199463	2835.298828	1272.016113	4.450625
285.290100	1101.352051	2880.809326	1290.220337	10.613814
285.664520	1167.342163	2949.074951	1285.669312	6.641128
286.038940	1160.515625	2953.625977	1347.108276	10.406089
286.413300	1167.342163	2983.207764	1208.301514	2.255638
286.787628	1135.484863	3242.617188	1328.904175	9.179268
287.161896	1190.097412	3342.739990	1322.077637	6.131079
287.536194	1217.403687	3315.433838	1347.108276	6.182208
287.910400	1137.760376	3183.453613	1274.291626	6.674082
288.284607	1190.097412	3008.238525	1317.526489	7.008756
288.658752	1142.311401	2924.044189	1326.628662	10.344831
289.032867	1165.066650	2796.614990	1306.148926	8.647141
289.406921	1137.760376	2976.381104	1260.638550	6.683171
289.781006	1067.219238	2867.156250	1258.363037	10.619472
290.154999	1155.964600	2930.870850	1381.241089	12.692304
290.529022	1162.791138	2971.830078	1319.802124	8.679249
290.902954	1149.138062	3178.902588	1358.485962	10.313901
291.276825	1185.546387	3162.973877	1390.343262	10.356732
291.650757	1133.209351	3376.872803	1251.536499	5.273837
292.024597	1201.474976	3269.923340	1294.771362	4.510453
292.398407	1174.168701	3208.484375	1376.690063	9.955257
292.772156	1185.546387	3060.575439	1328.904175	7.645630
293.145905	1199.199463	3081.055176	1342.557251	7.617895
293.519592	1146.862427	3003.687500	1317.526489	9.191176
293.893280	1167.342163	3001.411865	1335.730713	9.181143
294.266907	1203.750488	3094.708252	1299.322388	5.054153
294.640533	1128.658325	3188.004639	1256.087524	6.187847
295.014069	1128.658325	3365.495361	1338.006226	9.359104
295.387604	1144.586914	3379.148438	1392.618774	11.099800
295.761078	1196.923950	3558.914551	1419.924927	9.441230
296.134552	1176.444214	3502.026611	1376.690063	8.610567
296.507996	1212.852539	3476.995850	1394.894287	8.040204
296.881378	1242.434326	3476.995850	1363.036987	5.397151
297.254730	1160.515625	3647.659912	1406.271851	9.881061
297.628021	1221.954712	3957.130615	1378.965576	5.740430
298.001282	1194.648438	3866.109863	1378.965576	6.899487
298.374573	1176.444214	3963.957275	1415.373901	8.571428
298.747803	1108.178589	3727.302979	1449.506714	13.032146
299.121002	1155.964600	3709.098877	1449.506714	11.497324
299.494141	1162.791138	3536.159424	1333.455200	7.190796
299.867188	1115.005249	3602.149414	1306.148926	7.685267
300.240265	1176.444214	3483.822266	1274.291626	4.240632
300.613312	1124.107300	3333.637939	1349.383789	10.195671
300.986328	1149.138062	3308.607178	1413.098389	12.223389
301.359314	1206.026001	3374.597412	1378.965576	7.974816
301.732239	1215.128052	3283.576416	1378.965576	7.920794
302.105103	1169.617676	3231.239502	1347.108276	8.609270
302.477997	1183.270874	3281.301025	1328.904175	6.941430
302.850830	1140.035889	3322.260254	1408.547363	12.304485
303.223602	1133.209351	3210.759766	1269.740601	6.571742
303.596375	1196.923950	3108.361328	1224.230225	1.428573
303.969116	1087.698975	3065.126465	1349.383789	13.233599
304.341766	1196.923950	3026.442627	1326.628662	7.089554
304.714478	1135.484863	3140.218750	1294.771362	7.945518
305.087067	1196.923950	2987.758789	1344.832764	8.259211
305.459656	1201.474976	3233.515137	1249.260864	2.351621
305.832214	1208.301514	3128.841064	1301.597900	4.857821
306.204681	1171.893188	3147.045166	1281.118164	5.529953
306.577148	1185.546387	3069.677490	1281.118164	5.072459
306.949646	1174.168701	3124.290039	1303.873413	6.651110
307.322021	1185.546387	3074.228516	1258.363037	3.855421
307.694397	1210.577026	3149.320801	1312.975464	5.281690
308.066742	1144.586914	3165.249512	1272.016113	6.306308
308.439026	1133.209351	3156.147461	1299.322388	8.211474
308.811279	1130.933838	3342.739990	1381.241089	11.316871
309.183502	1176.444214	3376.872803	1256.087524	3.619445
309.555695	1117.280762	3429.209961	1347.108276	9.940941
309.927887	1192.372925	3445.138428	1310.699951	5.252523
310.299988	1171.893188	3422.383301	1333.455200	7.178970
310.672058	1194.648438	3495.199951	1358.485962	7.121663
311.044128	1210.577026	3524.781738	1340.281738	5.604721
311.416168	1212.852539	3497.475586	1278.842651	2.888446
311.788147	1185.546387	3470.169189	1292.495850	4.681274
312.160065	1258.363037	3506.577637	1365.312500	4.757084
312.531982	1233.332275	3506.577637	1324.353149	4.004006
312.903870	1194.648438	3379.148438	1301.597900	4.895833
313.275696	1199.199463	3345.015625	1294.771362	4.453872
313.647491	1144.586914	3356.393066	1299.322388	6.995888
314.019318	1165.066650	3276.750000	1260.638550	4.525863
314.391022	1237.883301	3299.505127	1310.699951	3.532008
314.762726	1158.240112	3331.362549	1258.363037	4.607330
315.134369	1194.648438	3604.425049	1292.495850	4.060435
315.505981	1160.515625	3572.567627	1312.975464	6.320753
315.877594	1171.893188	3690.894775	1408.547363	9.394761
316.249146	1115.005249	3558.914551	1294.771362	7.355679
316.620636	1196.923950	3322.260254	1237.883301	1.927194
316.992157	1140.035889	3345.015625	1328.904175	8.565534
317.363586	1185.546387	3190.280273	1376.690063	9.534616
317.735016	1206.026001	3201.657715	1262.914063	2.850629
318.106354	1206.026001	3156.147461	1297.046875	4.667447
318.477722	1167.342163	3231.239502	1237.883301	3.417861
318.849060	1162.791138	3240.341553	1294.771362	6.352685
319.220306	1183.270874	3251.719238	1390.343262	10.011002
319.591522	1215.128052	3404.179199	1308.424438	4.261955
319.962738	1178.719727	3399.628174	1312.975464	6.045082
320.333923	1126.382813	3347.291016	1315.250977	8.504096
320.705017	1212.852539	3292.678711	1274.291626	2.954049
321.076111	1190.097412	3440.587402	1324.353149	5.965622
321.447144	1269.740601	3256.270264	1249.260864	-1.030930
321.818176	1219.679199	3276.750000	1258.363037	1.880530
322.189178	1210.577026	3092.432861	1301.597900	4.836761
322.560120	1135.484863	3317.709229	1244.709839	5.005213
322.931030	1190.097412	3301.780762	1287.944824	4.633621
323.301910	1162.791138	3322.260254	1262.914063	4.636460
323.672729	1128.658325	3529.332764	1203.750488	3.127961
324.043549	1249.260864	3629.455566	1265.189575	0.669219
324.414337	1130.933838	3649.935303	1306.148926	6.955736
324.785095	1140.035889	3884.313965	1308.424438	6.135987
325.155792	1115.005249	3927.548828	1315.250977	7.119738
325.526428	1217.403687	3909.344727	1272.016113	2.028738
325.897034	1149.138062	3891.140625	1249.260864	3.651448
326.267670	1105.903076	3831.977051	1237.883301	4.841403
326.638184	1221.954712	3813.772949	1274.291626	2.019313
327.008728	1155.964600	3879.762939	1326.628662	6.265665
327.379211	1215.128052	3779.640137	1287.944824	2.839401
327.749634	1176.444214	3688.619141	1303.873413	5.072465
328.120026	1151.413574	3661.312988	1272.016113	4.805075
328.490417	1224.230225	3656.761963	1315.250977	3.741812
328.860748	1174.168701	3686.343750	1265.189575	3.623190
329.231079	1212.852539	3529.332764	1272.016113	2.554029
329.601318	1203.750488	3538.434814	1303.873413	4.288499
329.971558	1128.658325	3661.312988	1333.455200	8.086253
330.341736	1190.097412	3627.180176	1319.802124	5.322130
330.711914	1190.097412	3695.445801	1292.495850	4.087193
331.082062	1133.209351	3645.384277	1353.934937	8.786235
331.452148	1180.995239	3722.751953	1249.260864	2.685765
331.822174	1094.525513	3461.067139	1369.863525	11.634616
332.192200	1158.240112	3745.507324	1246.985352	3.430076
332.562134	1171.893188	3740.956299	1297.046875	4.871570
332.932129	1171.893188	3800.119629	1237.883301	2.510823
333.302063	1174.168701	3900.242676	1315.250977	5.175292
333.671906	1165.066650	3979.885986	1363.036987	7.033145
334.041718	1190.097412	4098.212891	1324.353149	4.616589
334.411499	1155.964600	4102.764160	1283.393677	4.324321
334.781281	1221.954712	4027.671875	1315.250977	3.325220
335.151001	1183.270874	4075.457764	1342.557251	5.507472
335.520721	1149.138062	4004.916504	1338.006226	6.613544
335.890350	1142.311401	3993.539063	1331.179688	6.624104
336.259979	1187.821899	4016.294189	1281.118164	3.298469
336.629547	1160.515625	3911.620361	1292.495850	4.797354
336.999084	1137.760376	4016.294189	1265.189575	4.426879
337.368622	1130.933838	4000.365479	1328.904175	6.899287
337.738098	1249.260864	3943.477539	1262.914063	0.506759
338.107513	1194.648438	3991.263428	1228.781250	1.220505
338.476898	1219.679199	3950.304199	1253.812012	1.250000
338.846252	1158.240112	4027.671875	1269.740601	3.885804
339.215576	1151.413574	4064.080078	1287.944824	4.687500
339.584869	1219.679199	4127.794922	1297.046875	2.660406
339.954132	1185.546387	3970.783691	1312.975464	4.575161
340.323334	1167.342163	3925.273438	1281.118164	4.125411
340.692505	1165.066650	3948.028564	1335.730713	6.132461
341.061646	1206.026001	3879.762939	1287.944824	3.063833
341.430786	1121.831787	4027.671875	1353.934937	7.987472
341.799896	1176.444214	3973.059326	1272.016113	3.417413
342.168915	1178.719727	4116.416992	1249.260864	2.401239
342.537903	1144.586914	4168.753906	1333.455200	6.245299
342.906830	1226.505737	4166.478516	1349.383789	4.179564
343.275757	1233.332275	4400.857422	1335.730713	3.232759
343.644684	1208.301514	4409.959473	1267.465088	1.847904
344.013550	1231.056763	4289.356934	1249.260864	0.595236
344.382355	1201.474976	4498.704590	1260.638550	1.794342
344.751129	1176.444214	4785.420410	1342.557251	4.602775
345.119873	1128.658325	4871.890137	1294.771362	4.437690
345.488586	1149.138062	4940.155762	1281.118164	3.481390
345.857269	1165.066650	5019.798828	1303.873413	3.600945
346.225891	1244.709839	5292.861328	1388.067749	3.541318
346.594482	1190.097412	5199.564941	1374.414551	4.597048
346.963043	1174.168701	5179.085449	1290.220337	2.897729
347.331543	1194.648438	5012.972168	1299.322388	2.741359
347.700043	1103.627563	4815.001953	1344.832764	6.499080
348.068512	1162.791138	4651.164551	1322.077637	4.566211
348.436951	1212.852539	4544.214844	1308.424438	2.868853
348.805328	1158.240112	4610.205078	1258.363037	2.900462
349.173645	1099.076538	4478.225098	1356.210449	7.609429
349.541931	1144.586914	4580.623535	1310.699951	4.834437
349.910217	1187.821899	4667.093262	1249.260864	1.765857
350.278473	1208.301514	4753.562988	1315.250977	3.016688
350.646667	1153.689087	4824.104004	1349.383789	5.331678
351.014801	1165.066650	4903.747559	1319.802124	4.138772
351.382935	1178.719727	4794.522461	1363.036987	5.097548
351.751007	1112.729614	4892.369629	1340.281738	6.020471
352.119049	1183.270874	4917.400391	1356.210449	4.631322
352.487091	1190.097412	4853.686035	1246.985352	1.552793
352.855072	1237.883301	5010.696777	1331.179688	2.472860
353.222992	1210.577026	5076.687012	1333.455200	3.178341
353.590881	1187.821899	5012.972168	1351.659302	4.283163
353.958740	1178.719727	5113.095215	1322.077637	3.643727
354.326599	1217.403687	5272.381836	1397.169800	4.433220
354.694397	1110.454102	5454.423340	1376.690063	6.128864
355.062134	1187.821899	5581.852539	1356.210449	3.832211
355.429840	1190.097412	5452.147949	1310.699951	2.829683
355.797516	1185.546387	5606.883301	1369.863525	4.168810
356.165192	1235.607788	5854.915039	1401.720825	3.596060
356.532776	1194.648438	5934.558105	1429.027100	4.944792
356.900360	1169.617676	6091.569336	1419.924927	5.085528
357.267883	1169.617676	6234.926758	1406.271851	4.672058
357.635376	1249.260864	6548.948730	1449.506714	3.778446
358.002808	1160.515625	6874.348145	1417.649414	4.500198
358.370270	1144.586914	7145.135254	1424.476074	4.664393
358.737640	1228.781250	7190.645508	1435.853638	3.473283
359.105011	1187.821899	7074.594238	1454.057739	4.522611
359.472321	1162.791138	6715.062012	1449.506714	5.163933
359.839569	1178.719727	6599.010254	1479.088501	5.541562
360.206787	1160.515625	6564.877441	1383.516602	4.126315
360.574005	1144.586914	6808.358398	1451.782227	5.423865
360.941193	1124.107300	7136.033203	1415.373901	4.844814
361.308319	1201.474976	7648.025391	1472.261963	4.200494
361.675415	1167.342163	8053.068359	1531.425537	5.287509
362.042450	1174.168701	8631.050781	1561.007324	5.187673
362.409424	1171.893188	9054.296875	1572.384888	5.080832
362.776428	1174.168701	9184.001953	1570.109375	4.943182
363.143402	1196.923950	8726.622070	1579.211426	5.077062
363.510284	1206.026001	8291.998047	1538.252075	4.688504
363.877136	1144.586914	7534.249512	1492.741699	5.448720
364.243988	1142.311401	7004.053223	1458.608887	5.395964
364.610779	1244.709839	6760.572266	1372.139038	2.310232
364.977539	1208.301514	6587.632813	1456.333252	4.610829
365.344269	1176.444214	6314.570313	1504.119263	6.377326
365.710938	1128.658325	6294.090332	1415.373901	5.550660
366.077576	1151.413574	6257.682129	1358.485962	4.055258
366.444183	1231.056763	6191.691895	1444.955688	4.311926
366.810760	1142.311401	6148.457031	1299.322388	3.136365
367.177277	1246.985352	6153.008301	1374.414551	2.597403
367.543823	1171.893188	6050.609863	1435.853638	5.410448
367.910248	1212.852539	6209.896484	1401.720825	3.779600
368.276642	1176.444214	6039.232422	1378.965576	4.164717
368.643036	1199.199463	5957.313477	1340.281738	2.965088
369.009399	1149.138062	5955.038086	1390.343262	5.018939
369.375671	1158.240112	5852.639648	1292.495850	2.859913
369.741974	1180.995239	5729.761230	1358.485962	3.901953
370.108215	1162.791138	5873.119141	1378.965576	4.589371
370.474396	1203.750488	5823.057617	1410.822876	4.482759
370.840546	1180.995239	5866.292480	1401.720825	4.711026
371.206665	1160.515625	5993.721680	1449.506714	5.979283
371.572784	1169.617676	6121.150879	1390.343262	4.457722
371.938843	1140.035889	6298.641602	1410.822876	5.249228
372.304840	1121.831787	6303.192383	1392.618774	5.226175
372.670807	1180.995239	6269.059570	1422.200562	4.740611
373.036713	1167.342163	6200.793945	1406.271851	4.746836
373.402649	1165.066650	6107.498047	1392.618774	4.604052
373.768524	1155.964600	6225.824707	1413.098389	5.071812
374.134308	1169.617676	6121.150879	1401.720825	4.687500
374.500122	1140.035889	6250.855469	1410.822876	5.298309
374.865875	1135.484863	6289.539551	1392.618774	4.988964
375.231567	1262.914063	6139.354980	1383.516602	2.473167
375.597260	1140.035889	6350.978516	1431.302612	5.589521
375.962891	1171.893188	6576.254883	1472.261963	5.557895
376.328461	1160.515625	6803.807129	1513.221313	6.250000
376.694031	1167.342163	6926.685547	1517.772339	6.084551
377.059540	1201.474976	7183.819336	1495.017212	4.906809
377.425049	1121.831787	7468.259277	1517.772339	6.238794
377.790497	1246.985352	7538.800293	1561.007324	4.990960
378.155945	1142.311401	8043.965820	1579.211426	6.330367
378.521301	1153.689087	7784.556641	1592.864502	6.623197
378.886597	1219.679199	7636.647949	1476.812988	4.007091
379.251892	1194.648438	7365.860840	1529.150024	5.420354
379.617157	1149.138062	6949.440430	1497.292725	6.002354
379.982422	1135.484863	6872.072754	1563.282837	7.457359
380.347595	1210.577026	6844.766602	1499.568237	5.129242
380.712738	1180.995239	6685.479980	1572.384888	7.110377
381.077820	1174.168701	6844.766602	1520.047852	6.099518
381.442902	1210.577026	6944.889648	1549.629639	5.912699
381.807953	1135.484863	6808.358398	1531.425537	6.979544
382.172974	1169.617676	6883.450195	1597.415649	7.487058
382.537933	1165.066650	6669.551270	1497.292725	6.035553
382.902832	1240.158813	6812.909180	1545.078613	5.471621
383.267700	1185.546387	6851.593262	1583.762451	7.028111
383.632538	1199.199463	6856.144043	1565.558350	6.476268
383.997345	1180.995239	7101.900391	1638.375000	7.724828
384.362152	1155.964600	7172.441406	1570.109375	6.883510
384.726898	1219.679199	7402.269043	1629.272949	6.624954
385.091553	1174.168701	7399.993652	1758.977539	9.393274
385.456238	1158.240112	7568.382324	1722.569214	8.803691
385.820862	1153.689087	7570.657715	1638.375000	7.553191
386.185425	1167.342163	7477.361328	1642.926025	7.536964
386.549988	1231.056763	7440.953125	1663.405762	6.962258
386.914490	1199.199463	7636.647949	1667.956787	7.281726
387.278961	1215.128052	7877.853027	1679.334351	6.967214
387.643372	1133.209351	7773.179199	1743.048950	9.184373
388.007782	1137.760376	7925.639160	1772.630737	9.353001
388.372101	1158.240112	7836.893555	1763.528564	9.063031
388.736450	1194.648438	7855.097656	1747.599976	8.302015
389.100739	1121.831787	7704.913574	1756.702026	9.643967
389.464966	1201.474976	7723.117676	1718.018188	7.920446
389.829163	1171.893188	7745.873047	1711.191650	8.203530
390.193329	1171.893188	7693.535645	1777.181763	9.281229
390.557495	1085.423462	7814.138672	1779.457275	10.314507
390.921570	1158.240112	7759.525879	1806.763550	9.824199
391.285614	1183.270874	7914.261230	1840.896362	9.770115
391.649597	1155.964600	8460.386719	1911.437500	10.342679
392.013550	1119.556274	8910.939453	2020.662476	11.565420
392.377502	1219.679199	9049.746094	2095.754639	11.188607
392.741455	1171.893188	8844.949219	1986.529663	10.616845
393.105316	1105.903076	8892.735352	1993.356201	11.396844
393.469086	1187.821899	8867.704102	1956.947876	10.014814
393.832886	1165.066650	8521.825195	1936.468262	10.485618
394.196655	1171.893188	8703.867188	1981.978638	10.755287
394.560333	1203.750488	8867.704102	2077.550537	11.401426
394.924042	1140.035889	8935.969727	2138.989502	12.813778
395.287659	1160.515625	8979.205078	1995.631714	10.681024
395.651245	1206.026001	8983.755859	2118.509766	11.732006
396.014771	1153.689087	8685.663086	2009.284912	11.359516
396.378296	1210.577026	8285.170898	2118.509766	12.833709
396.741791	1219.679199	8271.518555	2004.733887	11.132623
397.105255	1217.403687	8125.884766	2047.968750	12.022398
397.468628	1169.617676	7859.648926	2020.662476	12.721088
397.832001	1142.311401	7736.770508	1986.529663	12.801933
398.195313	1217.403687	8194.150391	2093.479248	12.557078
398.558624	1210.577026	7984.802734	2091.203613	12.999664
398.921844	1194.648438	8012.108887	2129.887451	13.718290
399.285095	1192.372925	7907.434570	2138.989502	14.096916
399.648254	1226.505737	8050.792480	2150.367188	13.537847
400.011383	1221.954712	8251.038086	2127.612061	12.884430
400.374451	1267.465088	8078.098633	2054.795166	11.560306
400.737549	1160.515625	8198.701172	2034.315552	12.415131
401.100586	1140.035889	8112.231445	2113.958740	13.968669
401.463562	1212.852539	7893.781738	2107.132324	13.385560
401.826508	1144.586914	8428.529297	2179.948975	14.214309
402.189392	1180.995239	7882.404297	2159.469238	14.601019
402.552246	1206.026001	8200.976563	2216.357178	14.443721
402.915070	1158.240112	8355.711914	2113.958740	13.278533
403.277893	1208.301514	8508.171875	2302.827148	14.993769
403.640656	1176.444214	8501.345703	2291.449463	15.222119
404.003326	1144.586914	8753.928711	2359.715088	15.968900
404.366028	1096.801025	9033.817383	2375.643799	16.112387
404.728699	1158.240112	9172.624023	2380.194824	15.247020
405.091248	1190.097412	9427.482422	2487.144287	15.745857
405.453857	1203.750488	9372.870117	2459.837891	15.376043
405.816345	1130.933838	9479.819336	2534.930176	16.816572
406.178833	1160.515625	9204.481445	2500.797363	16.661953
406.541260	1215.128052	9536.708008	2541.756836	15.942030
406.903687	1192.372925	9120.287109	2478.042236	16.216993
407.266052	1306.148926	8826.745117	2507.624023	15.975796
407.628387	1240.158813	8979.205078	2471.215576	15.907086
407.990662	1208.301514	8954.174805	2423.429688	15.687427
408.352905	1167.342163	8940.521484	2523.552490	17.447306
408.715118	1135.484863	8872.255859	2432.531738	16.764706
409.077332	1206.026001	8869.980469	2503.072998	16.923990
409.439484	1176.444214	8776.683594	2489.419678	17.275450
409.801575	1224.230225	8708.417969	2525.828125	17.391306
410.163605	1217.403687	8935.969727	2519.001465	16.863207
410.525635	1212.852539	9388.798828	2707.869873	18.285557
410.887604	1224.230225	9591.320313	2534.930176	15.664944
411.249573	1260.638550	9466.166992	2728.349365	17.886854
411.611481	1119.556274	9372.870117	2719.247314	19.382410
411.973328	1153.689087	9379.696289	2673.737061	18.478565
412.335144	1203.750488	9427.482422	2682.839111	17.985613
412.696930	1201.474976	9277.297852	2701.043213	18.568613
413.058685	1237.883301	9143.042969	2669.185791	18.105928
413.420410	1133.209351	9193.104492	2676.012451	19.141727
413.782104	1185.546387	9181.726563	2662.359375	18.468981
414.143707	1162.791138	9186.277344	2664.634766	18.718094
414.505310	1192.372925	9270.471680	2630.501953	17.802816
414.866852	1203.750488	9320.533203	2719.247314	18.671152
415.228394	1135.484863	9488.921875	2769.308838	19.558702
415.589874	1142.311401	9620.902344	2812.543701	19.699409
415.951324	1224.230225	9807.495117	2864.880615	19.114527
416.312683	1187.821899	10253.497070	2751.104736	17.243977
416.674072	1228.781250	10267.149414	2762.482178	16.968781
417.035370	1121.831787	10644.886719	2930.870850	18.996416
417.396667	1151.413574	10688.121094	2880.809326	18.134098
417.757935	1140.035889	10669.916992	2860.329590	18.051577
418.119141	1203.750488	11222.868164	2985.483398	17.783333
418.480286	1196.923950	11498.207031	2978.656738	17.296223
418.841400	1137.760376	12032.954102	3049.197754	17.543859
419.202484	1171.893188	12369.731445	3288.127441	18.898598
419.563568	1194.648438	12952.264648	3247.168213	17.456938
419.924591	1130.933838	13537.073242	3360.944336	17.975056
420.285553	1199.199463	13839.717773	3426.934326	17.623762
420.646484	1158.240112	14913.763672	3581.669678	17.617867
421.007355	1142.311401	14695.313477	3727.302979	19.073204
421.368225	1140.035889	16028.768555	3920.722412	18.676449
421.729065	1140.035889	16040.146484	4009.467773	19.257790
422.089874	1112.729614	16411.056641	3963.957275	18.637512
422.450592	1199.199463	16652.261719	4155.101074	19.128258
422.811279	1171.893188	16281.351563	4043.600586	19.006025
423.171936	1183.270874	16040.146484	4159.651855	20.033693
423.532593	1133.209351	16067.452148	4218.815430	20.661282
423.893127	1167.342163	16390.576172	4257.499512	20.298954
424.253723	1149.138062	16395.126953	4375.826660	21.164179
424.614197	1174.168701	16490.699219	4355.346680	20.769573
424.974670	1217.403687	17150.599609	4471.398438	20.422735
425.335052	1162.791138	17489.652344	4537.388672	20.668991
425.695496	1155.964600	16431.535156	4398.581543	21.227468
426.055817	1180.995239	16540.759766	4398.581543	20.948149
426.416168	1140.035889	16602.199219	4441.816406	21.353937
426.776398	1162.791138	15680.614258	4230.193359	21.128529
427.136627	1194.648438	14765.854492	4136.896973	21.680082
427.496826	1178.719727	14777.232422	4116.416992	21.603077
427.856995	1178.719727	14313.025391	3950.304199	21.101873
428.217102	1240.158813	13534.797852	3904.793701	21.673143
428.577179	1208.301514	13518.869141	3834.252441	21.330868
428.937195	1135.484863	13380.062500	3761.435791	21.445826
429.297180	1169.617676	12576.803711	3729.578613	22.441652
429.657135	1160.515625	12686.028320	3629.455566	21.421520
430.017059	1121.831787	13254.908203	3745.507324	21.624157
430.376984	1237.883301	12588.180664	3554.363525	20.408983
430.736786	1158.240112	12306.016602	3540.710449	21.371708
431.096588	1208.301514	12608.661133	3611.251465	21.077845
431.456360	1130.933838	12588.180664	3613.527100	21.668324
431.816071	1219.679199	12492.609375	3515.679688	20.367380
432.175781	1185.546387	12321.945313	3563.465576	21.352676
432.535400	1146.862427	12595.007813	3595.322754	21.387398
432.895020	1169.617676	12201.342773	3661.312988	22.586634
433.254578	1185.546387	12508.538086	3725.027588	22.427650
433.614105	1180.995239	12647.344727	3706.823486	22.028179
433.973602	1194.648438	13111.550781	3925.273438	22.913883
434.333038	1151.413574	13075.142578	3809.221924	22.290077
434.692444	1085.423462	13068.316406	3961.681641	24.003038
435.051819	1137.760376	13480.185547	3918.446777	22.529499
435.411133	1256.087524	13234.428711	4196.060547	24.544077
435.770416	1178.719727	12806.630859	3954.855225	23.874756
436.129669	1096.801025	13234.428711	4164.203125	25.271841
436.488861	1165.066650	12790.702148	4016.294189	24.525347
436.848083	1124.107300	12836.212891	4102.764160	25.432291
437.207184	1185.546387	12861.243164	4091.386475	24.887936
437.566254	1258.363037	13216.224609	4189.233887	24.509993
437.925293	1246.985352	13220.775391	4416.785645	26.472824
438.284363	1203.750488	13512.042969	4557.868164	27.250875
438.643311	1237.883301	13523.419922	4482.775879	26.412296
439.002258	1258.363037	13355.031250	4596.552246	27.595940
439.361145	1171.893188	14201.525391	4694.399414	27.034580
439.719971	1146.862427	14299.373047	4703.501465	27.041523
440.078827	1215.128052	14852.324219	4926.502441	27.215084
440.437592	1165.066650	15132.212891	5142.677246	28.478334
440.796295	1158.240112	15464.439453	5156.330078	27.946554
441.155029	1278.842651	15874.033203	5545.444336	29.232929
441.513672	1201.474976	16463.392578	5575.025879	28.656626
441.872253	1224.230225	16502.076172	5804.853516	29.982126
442.230865	1201.474976	16158.473633	5565.923828	29.179976
442.589386	1196.923950	15976.431641	5782.098145	31.023863
442.947876	1155.964600	16110.687500	5627.362793	29.899574
443.306335	1115.005249	15487.194336	5433.943848	30.050665
443.664764	1155.964600	15179.999023	5472.627441	30.780466
444.023102	1162.791138	15334.734375	5565.923828	31.069365
444.381500	1108.178589	15220.958984	5408.913086	30.474041
444.739777	1174.168701	15216.407227	5563.648438	31.259115
445.098022	1108.178589	15503.123047	5615.985352	31.315207
445.456238	1176.444214	15446.235352	5634.189453	31.239037
445.814423	1183.270874	15723.848633	5707.006348	31.111111
446.172577	1171.893188	16761.486328	6082.467285	31.499054
446.530701	1217.403687	16741.005859	6057.436523	31.178541
446.888733	1135.484863	17293.958984	6257.682129	31.699757
447.246765	1158.240112	18106.318359	6626.316406	32.263695
447.604736	1130.933838	17489.652344	6275.886230	31.450827
447.962677	1171.893188	17537.439453	6553.500000	32.883762
448.320587	1190.097412	17676.246094	6448.826172	31.897860
448.678436	1165.066650	17619.357422	6444.274902	32.084080
449.036255	1142.311401	17341.744141	6337.325195	32.069107
449.394043	1258.363037	16317.759766	6084.742676	32.048958
449.751770	1146.862427	16360.994141	6330.499023	34.071198
450.109467	1119.556274	16067.452148	6109.773438	33.384079
450.467163	1210.577026	15967.329102	6041.507813	32.737087
450.824768	1167.342163	15776.185547	5798.026855	31.697817
451.182343	1137.760376	15737.501953	5820.782227	32.076061
451.539886	1196.923950	14970.651367	5615.985352	32.083263
451.897369	1219.679199	15352.938477	5641.016113	31.283207
452.254822	1183.270874	15321.082031	5752.516602	32.319328
452.612274	1142.311401	15389.347656	5788.924805	32.614597
452.969635	1130.933838	15209.581055	5666.046875	32.212708
453.326965	1206.026001	15088.978516	5622.812012	31.814459
453.684326	1149.138062	14970.651367	5579.577148	32.054657
454.041534	1121.831787	14804.538086	5490.831543	31.930819
454.398773	1146.862427	14479.138672	5429.392578	32.121525
454.755951	1217.403687	14308.474609	5372.504395	31.739958
455.113098	1217.403687	13484.736328	5183.636230	32.331661
455.470215	1217.403687	13907.983398	5267.830566	31.916798
455.827240	1224.230225	13741.870117	5238.249023	32.066898
456.184265	1233.332275	13871.575195	5042.554199	30.140438
456.541260	1190.097412	13600.788086	5313.341309	33.223328
456.898193	1133.209351	13475.633789	5060.758301	31.821533
457.255096	1246.985352	13771.452148	5138.125977	31.068314
457.611969	1119.556274	13582.583984	5103.993164	31.970058
457.968781	1180.995239	14010.381836	5301.963379	32.121319
458.325531	1108.178589	14055.891602	5256.453125	32.038666
458.682312	1208.301514	14720.343750	5363.402344	30.751093
459.039001	1158.240112	15466.714844	5495.382813	30.311705
459.395630	1133.209351	16106.136719	5857.190430	31.550148
459.752289	1212.852539	17375.876953	6030.129883	29.804306
460.108856	1192.372925	18224.646484	6476.132324	31.022043
460.465363	1064.943726	19285.039063	6599.010254	30.373421
460.821899	1190.097412	19087.068359	6628.592285	30.387796
461.178345	1210.577026	18875.445313	6569.428711	30.336208
461.534760	1185.546387	18288.361328	6580.806152	31.546034
461.891144	1133.209351	17541.990234	6203.069824	30.897240
462.247467	1194.648438	16738.730469	5866.292480	30.054165
462.603760	1144.586914	16445.189453	5934.558105	31.305769
462.960052	1169.617676	15714.747070	5713.832520	31.242176
463.316254	1208.301514	15223.234375	5370.229004	29.696381
463.672424	1196.923950	14802.262695	5249.626465	29.787590
464.028564	1192.372925	14435.904297	5240.524414	30.567009
464.384644	1144.586914	14570.160156	5133.574707	29.711863
464.740723	1146.862427	14699.864258	5251.901855	30.288784
465.096741	1149.138062	14308.474609	5204.116211	30.814455
465.452698	1192.372925	14203.800781	5065.309082	29.765650
465.808655	1180.995239	14576.986328	5124.472656	29.437744
466.164520	1126.382813	14367.638672	5067.584961	29.764565
466.520355	1201.474976	15050.294922	5349.749512	29.953991
466.876190	1167.342163	15191.376953	5413.463867	30.277460
467.231964	1246.985352	14979.753906	5276.932617	29.345484
467.587677	1160.515625	15769.359375	5379.331055	28.878504
467.943390	1124.107300	16033.319336	5468.076660	29.136143
468.299011	1162.791138	15257.367188	5436.219238	30.319664
468.654633	1146.862427	15202.754883	5165.432129	28.589930
469.010223	1190.097412	15195.927734	5304.238770	29.374493
469.365723	1171.893188	14793.161133	5224.595703	29.752756
469.721191	1221.954712	14895.559570	5117.646484	28.490599
470.076660	1215.128052	14287.995117	4974.288574	28.755442
470.432068	1217.403687	14611.119141	4890.094238	27.420998
470.787445	1244.709839	14272.066406	5053.931641	29.240173
471.142792	1158.240112	14281.168945	4892.369629	28.455000
471.498016	1144.586914	14488.241211	5110.819824	29.723738
471.853271	1224.230225	14627.047852	5012.972168	28.268250
472.208496	1233.332275	14718.068359	4910.573730	27.269657
472.563660	1185.546387	14681.660156	5129.023926	29.219357
472.918762	1199.199463	15248.264648	5008.421387	27.113703
473.273865	1176.444214	15484.918945	5188.187500	28.037533
473.628876	1187.821899	15639.654297	5156.330078	27.460243
473.983917	1228.781250	15748.879883	5156.330078	27.049051
474.338837	1199.199463	15801.216797	5085.789063	26.616798
474.693787	1117.280762	15789.838867	5103.993164	27.171215
475.048645	1190.097412	15250.540039	4990.217285	27.027029
475.403503	1110.454102	16067.452148	5003.870117	26.030731
475.758270	1178.719727	16017.390625	5172.258789	26.913052
476.113037	1215.128052	15985.533203	5040.278809	25.897400
476.467773	1203.750488	16144.820313	5172.258789	26.561071
476.822418	1176.444214	16893.466797	5511.311523	27.580715
477.177063	1183.270874	16745.556641	5286.034668	26.363503
477.531647	1253.812012	17255.273438	5265.555176	25.071106
477.886200	1194.648438	17530.611328	5427.117188	25.908903
478.240723	1208.301514	18006.195313	5511.311523	25.616364
478.595184	1203.750488	18176.859375	5536.342285	25.526211
478.949585	1194.648438	18320.218750	5563.648438	25.511559
479.303986	1212.852539	18559.148438	5561.373047	25.068869
479.658325	1219.679199	18579.626953	5766.169922	26.189543
480.012634	1142.311401	19077.966797	5722.935059	25.539202
480.366913	1155.964600	19571.753906	5784.374023	25.132832
480.721130	1194.648438	19744.693359	5741.139160	24.509325
481.075317	1176.444214	20534.298828	5807.128906	23.921474
481.429474	1165.066650	21512.773438	6109.773438	24.301052
481.783569	1158.240112	22523.105469	6221.273926	23.697943
482.137604	1135.484863	23280.853516	6535.295898	24.383476
482.491669	1226.505737	25210.494141	7022.257324	24.165087
482.845612	1165.066650	27838.720703	7729.944336	24.611843
483.199554	1196.923950	31686.626953	8278.344727	23.225615
483.553436	1196.923950	37134.222656	9880.311523	24.162607
483.907318	1228.781250	43544.367188	11125.021484	23.386749
484.261139	1196.923950	49763.363281	12715.610352	23.717381
484.614899	1149.138062	52830.765625	13302.694336	23.516203
484.968628	1130.933838	52482.613281	13407.368164	23.906588
485.322357	1165.066650	49918.101563	12492.609375	23.234539
485.675964	1183.270874	46502.542969	11839.535156	23.513760
486.029572	1149.138062	42233.667969	10415.058594	22.553308
486.383148	1203.750488	39669.152344	9855.280273	22.491716
486.736694	1153.689087	37177.457031	9436.584961	22.992861
487.090149	1160.515625	37480.101563	9261.370117	22.304369
487.443604	1256.087524	38369.832031	9254.542969	21.551195
487.796997	1194.648438	39826.164063	9759.708984	22.171173
488.150360	1235.607788	41298.425781	9857.555664	21.521074
488.503693	1190.097412	42256.421875	10098.761719	21.693356
488.856964	1185.546387	41266.570313	9930.373047	21.817871
489.210175	1149.138062	39098.000000	9215.859375	21.256819
489.563416	1167.342163	37081.886719	8606.019531	20.712158
489.916565	1174.168701	34701.691406	8248.762695	21.100855
490.269653	1199.199463	32696.958984	7805.036133	20.972403
490.622772	1155.964600	31570.576172	7513.769531	20.903784
490.975769	1240.158813	31952.863281	7256.635742	19.589539
491.328735	1215.128052	32678.753906	7479.636719	19.910320
491.681732	1112.729614	34417.253906	7811.862793	20.114784
492.034607	1167.342163	36895.292969	8278.344727	19.903193
492.387482	1121.831787	37532.441406	8640.152344	20.648708
492.740326	1162.791138	36861.160156	8223.732422	19.779451
493.093079	1169.617676	35413.929688	7866.475586	19.556118
493.445862	1267.465088	32062.087891	7183.819336	19.212297
493.798523	1169.617676	29852.556641	6678.653320	19.206663
494.151215	1192.372925	27474.638672	6039.232422	18.441559
494.503815	1135.484863	25519.964844	5631.914063	18.439716
494.856384	1185.546387	23724.580078	5481.729492	19.061079
495.208923	1117.280762	22796.167969	5176.810059	18.725727
495.561432	1101.352051	22386.574219	5065.309082	18.623047
495.913879	1144.586914	22047.521484	5019.798828	18.539082
496.266296	1137.760376	22159.021484	4990.217285	18.326479
496.618683	1142.311401	22281.900391	4853.686035	17.556511
496.970978	1146.862427	22994.138672	5217.769043	18.633476
497.323273	1165.066650	22620.953125	5108.544434	18.379467
497.675507	1240.158813	22866.708984	5026.625488	17.508417
498.027710	1233.332275	22857.607422	5076.687012	17.773335
498.379852	1135.484863	22743.830078	4842.308105	17.154591
498.731995	1219.679199	22691.494141	4701.226074	16.214499
499.084076	1146.862427	22184.052734	4744.460938	17.101137
499.436096	1158.240112	22045.246094	4669.368652	16.810108
499.788086	1221.954712	21590.140625	4571.521484	16.445093
500.140106	1262.914063	21180.546875	4480.500488	16.154463
500.491943	1199.199463	20666.279297	4314.387207	16.002337
500.843842	1146.862427	20434.177734	4289.356934	16.293064
501.195679	1228.781250	19922.185547	4227.917480	16.043821
501.547455	1178.719727	19580.857422	4095.937500	15.852604
501.899231	1151.413574	19380.611328	4070.906738	16.015478
502.250885	1149.138062	19155.333984	4161.927734	16.731960
502.602600	1178.719727	19191.742188	3968.508301	15.487619
502.954193	1219.679199	19139.406250	3922.997803	15.085713
503.305786	1137.760376	19159.884766	3948.028564	15.593433
503.657379	1183.270874	19027.904297	3991.263428	15.735783
504.008820	1176.444214	19476.181641	3868.385254	14.710270
504.360291	1212.852539	19430.671875	3820.599365	14.314263
504.711700	1246.985352	19756.072266	3875.211914	14.199656
505.063080	1221.954712	19765.173828	3827.426025	14.050803
505.414368	1137.760376	19478.458984	3800.119629	14.516128
505.765656	1199.199463	19423.845703	3779.640137	14.159071
506.116943	1199.199463	19564.927734	3827.426025	14.310494
506.468109	1144.586914	19216.773438	3672.690674	13.988919
506.819305	1160.515625	19278.212891	3679.517090	13.903541
507.170410	1210.577026	19244.080078	3620.353516	13.362774
507.521484	1178.719727	19264.558594	3640.833252	13.613487
507.872559	1149.138062	19182.640625	3588.496338	13.526814
508.223480	1124.107300	19346.478516	3568.016602	13.411587
508.574493	1199.199463	19619.541016	3572.567627	12.884496
508.925385	1076.321289	20045.062500	3699.996826	13.831573
509.276245	1130.933838	20349.982422	3502.026611	12.337201
509.627045	1155.964600	20543.402344	3599.874023	12.605634
509.977814	1187.821899	21037.189453	3643.108887	12.369599
510.328613	1165.066650	20773.228516	3638.557861	12.614600
510.679260	1135.484863	20950.720703	3704.547852	12.965089
511.029999	1185.546387	21098.628906	3661.312988	12.432865
511.380585	1233.332275	21153.242188	3558.914551	11.674663
511.731140	1199.199463	21294.324219	3554.363525	11.720077
512.081726	1171.893188	21660.681641	3568.016602	11.694803
512.432129	1176.444214	21885.958984	3622.629150	11.811890
512.782654	1144.586914	22195.429688	3595.322754	11.641984
513.133057	1158.240112	21965.601563	3663.588379	12.040682
513.483398	1158.240112	22263.695313	3638.557861	11.752023
513.833801	1219.679199	22015.664063	3517.955078	11.051537
514.183960	1133.209351	21537.804688	3411.005615	11.163154
514.534302	1190.097412	21455.884766	3499.750977	11.396811
514.884460	1130.933838	21278.394531	3413.281250	11.328214
515.234619	1217.403687	21201.027344	3351.842041	10.680939
515.584717	1146.862427	21419.476563	3319.984863	10.719499
515.934753	1121.831787	21417.201172	3329.086914	10.875659
516.284851	1115.005249	21556.007813	3281.301025	10.597797
516.634766	1165.066650	21881.408203	3288.127441	10.248241
516.984741	1196.923950	21751.703125	3408.730225	10.760545
517.334595	1153.689087	22805.269531	3363.219727	10.204940
517.684448	1160.515625	23417.384766	3479.271240	10.418158
518.034363	1162.791138	24336.695313	3511.128662	10.133542
518.384094	1246.985352	25142.228516	3522.506104	9.522903
518.733826	1183.270874	26377.837891	3636.282227	9.736271
519.083496	1146.862427	27121.931641	3677.241699	9.741570
519.433167	1146.862427	27256.187500	3524.781738	9.107549
519.782776	1203.750488	27085.523438	3538.434814	9.020574
520.132324	1171.893188	26361.908203	3627.180176	9.747065
520.481873	1180.995239	26214.000000	3454.240479	9.080992
520.831299	1176.444214	25224.148438	3426.934326	9.358440
521.180786	1192.372925	24675.748047	3251.719238	8.769380
521.530151	1208.301514	24534.666016	3144.769775	8.301629
521.879517	1192.372925	24373.103516	3149.320801	8.442132
522.228882	1221.954712	23845.181641	3074.228516	8.187488
522.578064	1153.689087	23581.222656	2996.860840	8.218344
522.927307	1167.342163	23904.345703	3008.238525	8.096478
523.276489	1224.230225	24136.449219	2969.554688	7.617440
523.625610	1146.862427	24090.939453	3044.646729	8.271348
523.974792	1208.301514	24700.777344	3049.197754	7.836110
524.323792	1196.923950	24976.117188	3128.841064	8.124401
524.672852	1221.954712	25390.261719	3010.513916	7.400433
525.021790	1206.026001	26350.531250	3087.881836	7.484163
525.370728	1149.138062	27674.884766	3067.402100	7.231706
525.719604	1149.138062	29035.644531	3233.515137	7.474500
526.068420	1201.474976	30826.480469	3301.780762	7.089638
526.417297	1151.413574	31848.189453	3438.312012	7.449963
526.765991	1105.903076	33004.152344	3449.689453	7.347696
527.114746	1185.546387	33698.187500	3438.312012	6.928892
527.463379	1155.964600	35099.910156	3520.230713	6.965207
527.812012	1183.270874	37138.773438	3581.669678	6.670464
528.160706	1112.729614	39696.460938	3836.528076	7.059448
528.509155	1158.240112	44566.074219	4045.875977	6.652338
528.857727	1171.893188	49729.230469	4369.000000	6.584189
529.206177	1219.679199	52525.847656	4569.245605	6.528584
529.554565	1124.107300	53058.320313	4630.685059	6.751960
529.902893	1176.444214	51515.515625	4528.286621	6.658530
530.251221	1265.189575	48841.777344	4161.927734	6.088580
530.599548	1226.505737	45178.191406	3911.620361	6.109241
530.947876	1190.097412	41475.917969	3663.588379	6.139855
531.296021	1176.444214	38005.750000	3408.730225	6.061168
531.644165	1155.964600	36187.605469	3258.545898	6.001949
531.992249	1219.679199	34369.464844	3235.790527	6.081823
532.340454	1194.648438	32985.949219	3035.544678	5.790566
532.688354	1206.026001	33568.484375	2939.972900	5.357896
533.036438	1176.444214	33825.617188	3024.167236	5.659326
533.384338	1151.413574	36239.945313	3267.647949	6.031128
533.732239	1183.270874	38246.953125	3144.769775	5.292240
534.080139	1144.586914	39032.007813	3144.769775	5.279279
534.427917	1217.403687	37928.378906	3058.300049	5.014566
534.775757	1180.995239	36888.468750	2965.003662	4.996177
535.123474	1162.791138	35409.378906	2994.585449	5.348838
535.471191	1199.199463	33074.695313	2787.512939	4.982867
535.818848	1203.750488	31789.025391	2680.563477	4.828510
536.166382	1167.342163	30869.714844	2621.399902	4.895426
536.513977	1165.066650	30935.705078	2612.297852	4.861270
536.861511	1183.270874	30949.359375	2755.655762	5.282471
537.208984	1155.964600	31149.603516	2680.563477	5.083074
537.556396	1171.893188	31088.166016	2603.195801	4.784361
537.903809	1126.382813	30225.742188	2703.318604	5.419143
538.251160	1128.658325	29634.107422	2621.399902	5.236689
538.598389	1167.342163	28439.458984	2453.011475	4.714226
538.945740	1162.791138	27547.455078	2448.460449	4.872790
539.292969	1144.586914	27131.035156	2218.632813	4.133100
539.640137	1099.076538	26673.654297	2368.817139	4.964855
539.987244	1153.689087	26962.646484	2366.541748	4.699348
540.334351	1203.750488	28018.488281	2346.062012	4.260014
540.681458	1180.995239	29351.943359	2405.225586	4.345719
541.028442	1140.035889	31964.240234	2412.052002	4.126679
541.375366	1212.852539	34974.753906	2544.032227	3.942846
541.722290	1194.648438	37782.746094	2657.808350	3.999005
542.069153	1190.097412	39619.093750	2705.594238	3.943629
542.416016	1137.760376	39762.449219	2812.543701	4.336044
542.762756	1162.791138	38975.121094	2851.227539	4.465307
543.109558	1130.933838	37664.421875	2701.043213	4.297727
543.456299	1228.781250	36057.902344	2596.369141	3.926564
543.802917	1151.413574	34806.367188	2512.175049	4.043272
544.149536	1178.719727	32890.378906	2462.113525	4.047072
544.496094	1130.933838	30635.335938	2384.745850	4.249576
544.842651	1174.168701	29094.808594	2305.102539	4.050529
545.189148	1233.332275	27988.906250	2323.306641	4.073822
545.535583	1258.363037	26894.380859	2120.785400	3.364104
545.882019	1208.301514	26364.183594	2077.550537	3.455450
546.228333	1176.444214	25861.292969	2093.479248	3.714971
546.574707	1135.484863	25831.712891	2141.265137	4.072607
546.920898	1155.964600	25783.925781	2098.030273	3.825187
547.267212	1146.862427	25929.558594	2034.315552	3.580939
547.613342	1153.689087	25906.804688	2063.897461	3.677147
547.959473	1237.883301	25501.761719	2100.305664	3.554347
548.305664	1240.158813	24436.818359	1968.325439	3.139101
548.651611	1194.648438	23826.978516	1954.672363	3.358134
548.997742	1180.995239	22616.400391	2043.417725	4.023355
549.343689	1226.505737	22204.531250	1847.722900	2.961276
549.689575	1151.413574	21055.394531	1915.988525	3.841317
550.035522	1183.270874	20070.093750	1884.131226	3.710843
550.381287	1171.893188	19715.111328	1847.722900	3.644619
550.727173	1206.026001	19341.927734	1795.385864	3.249686
551.072876	1185.546387	19137.130859	1768.079712	3.245025
551.418640	1203.750488	18893.648438	1772.630737	3.215848
551.764282	1183.270874	18672.923828	1743.048950	3.200624
552.109863	1178.719727	18814.005859	1788.559326	3.458065
552.455505	1078.596802	18759.392578	1672.507813	3.359074
552.801025	1158.240112	19321.447266	1631.548462	2.605863
553.146545	1226.505737	19107.548828	1772.630737	3.054212
553.491943	1210.577026	19692.357422	1786.283813	3.114996
553.837341	1199.199463	19826.613281	1806.763550	3.261666
554.182800	1201.474976	19148.507813	1724.844727	2.916191
554.528015	1187.821899	19032.455078	1731.671387	3.047692
554.873352	1144.586914	18600.107422	1670.232300	3.011342
555.218628	1142.311401	18381.656250	1729.395752	3.405491
555.563721	1128.658325	18236.023438	1604.242188	2.779995
555.908875	1174.168701	18024.400391	1672.507813	2.957461
556.254028	1176.444214	17655.765625	1670.232300	2.996410
556.599121	1176.444214	17594.326172	1629.272949	2.758143
556.944031	1144.586914	17175.630859	1699.814087	3.463450
557.289063	1183.270874	17212.039063	1695.262939	3.194207
557.633972	1185.546387	17016.343750	1688.436401	3.176656
557.978882	1074.045776	16970.833984	1617.895264	3.421128
558.323792	1130.933838	16863.884766	1633.823975	3.196413
558.668518	1169.617676	16645.435547	1649.752563	3.102485
559.013306	1231.056763	16727.353516	1615.619751	2.481644
559.358032	1203.750488	16852.507813	1620.170776	2.661044
559.702637	1178.719727	16777.414063	1611.068726	2.771700
560.047363	1249.260864	16556.689453	1631.548462	2.497399
560.391846	1267.465088	16590.822266	1576.935913	2.019602
560.736450	1180.995239	16474.771484	1595.140137	2.707931
561.080933	1221.954712	16825.201172	1567.833862	2.216713
561.425354	1221.954712	16806.996094	1588.313477	2.350708
561.769775	1210.577026	16863.884766	1558.731689	2.224160
562.114136	1176.444214	17011.792969	1597.415649	2.658429
562.458496	1174.168701	16895.742188	1483.639526	1.968447
562.802673	1187.821899	16777.414063	1570.109375	2.452197
563.146912	1133.209351	16857.058594	1590.588989	2.908827
563.491150	1155.964600	16595.373047	1547.354126	2.535003
563.835266	1174.168701	16527.107422	1581.486938	2.653031
564.179443	1196.923950	16784.242188	1572.384888	2.408759
564.523438	1146.862427	16602.199219	1520.047852	2.414606
564.867493	1126.382813	16836.578125	1617.895264	3.128621
565.211426	1135.484863	16968.558594	1565.558350	2.716298
565.555359	1158.240112	17159.703125	1558.731689	2.502844
565.899231	1144.586914	17673.970703	1535.976563	2.367842
566.243042	1144.586914	18040.328125	1597.415649	2.680135
566.586914	1201.474976	18263.330078	1574.660400	2.187250
566.930603	1169.617676	18775.322266	1570.109375	2.274784
567.274292	1142.311401	18980.119141	1615.619751	2.653400
567.617981	1162.791138	18841.312500	1533.701050	2.098082
567.961609	1187.821899	18547.769531	1515.496826	1.887534
568.305237	1124.107300	18140.451172	1540.527588	2.447178
568.648682	1146.862427	17892.419922	1533.701050	2.310097
568.992188	1169.617676	17758.164063	1467.710938	1.796982
569.335632	1167.342163	17318.988281	1497.292725	2.042829
569.679016	1174.168701	17325.814453	1488.190552	1.944210
570.022461	1169.617676	17166.529297	1574.660400	2.532006
570.365662	1146.862427	17633.009766	1513.221313	2.222223
570.708984	1190.097412	17466.898438	1547.354126	2.194883
571.052185	1101.352051	17587.500000	1601.966675	3.036577
571.395386	1196.923950	17539.714844	1586.037964	2.380952
571.738525	1165.066650	18210.992188	1570.109375	2.376185
572.081604	1187.821899	18606.933594	1663.405762	2.730242
572.424683	1210.577026	18732.087891	1572.384888	2.064935
572.767578	1208.301514	19298.691406	1563.282837	1.962265
573.110596	1185.546387	18989.220703	1586.037964	2.249488
573.453552	1221.954712	19037.007813	1622.446289	2.248052
573.796387	1137.760376	18784.423828	1629.272949	2.785300
574.139282	1144.586914	18402.136719	1522.323364	2.188818
574.481995	1224.230225	18204.166016	1526.874512	1.782364
574.824768	1165.066650	18240.574219	1554.180664	2.278785
575.167480	1119.556274	18261.054688	1469.986450	2.044338
575.510132	1199.199463	17746.787109	1608.793213	2.475247
575.852722	1146.862427	18113.146484	1479.088501	1.958155
576.195251	1210.577026	17883.318359	1533.701050	1.938038
576.537842	1165.066650	17617.082031	1481.364014	1.922545
576.880188	1171.893188	17387.253906	1481.364014	1.908504
577.222717	1201.474976	17187.007813	1506.394775	1.907473
577.565063	1192.372925	16606.750000	1506.394775	2.037201
577.907410	1158.240112	16137.993164	1520.047852	2.415312
578.249756	1121.831787	15962.778320	1517.772339	2.667893
578.591919	1151.413574	15769.359375	1531.425537	2.599626
578.934204	1224.230225	15362.041016	1517.772339	2.076291
579.276306	1174.168701	15491.746094	1508.670288	2.336300
579.618469	1137.760376	14895.559570	1406.271851	1.951704
579.960571	1151.413574	14904.661133	1429.027100	2.018531
580.302551	1165.066650	14340.332031	1431.302612	2.020725
580.644531	1301.597900	14276.617188	1504.119263	1.560856
580.986511	1187.821899	14178.770508	1406.271851	1.681555
581.328369	1149.138062	14051.340820	1415.373901	2.063491
581.670227	1176.444214	13921.636719	1394.894287	1.713980
582.012024	1112.729614	13880.676758	1492.741699	2.976297
582.353821	1215.128052	13882.952148	1424.476074	1.652596
582.695496	1151.413574	13616.716797	1406.271851	2.044541
583.037231	1190.097412	13646.297852	1469.986450	2.246986
583.378845	1146.862427	13744.145508	1426.751587	2.221822
583.720398	1137.760376	13578.032227	1442.680176	2.451070
584.062012	1158.240112	13471.083008	1485.915039	2.661245
584.403442	1108.178589	13373.235352	1410.822876	2.467533
584.744934	1146.862427	13327.725586	1463.159912	2.596675
585.086365	1133.209351	13593.960938	1413.098389	2.246165
585.427734	1158.240112	13345.929688	1424.476074	2.184466
585.768982	1203.750488	13375.511719	1431.302612	1.869509
586.110291	1165.066650	13227.602539	1438.129150	2.263724
586.451599	1192.372925	13471.083008	1410.822876	1.779095
586.792725	1183.270874	13225.327148	1403.996338	1.832955
587.133850	1176.444214	13302.694336	1419.924927	2.007881
587.474915	1178.719727	13380.062500	1438.129150	2.126073
587.815979	1192.372925	13304.969727	1374.414551	1.502912
588.157043	1235.607788	13350.480469	1413.098389	1.465064
588.497925	1133.209351	13361.858398	1363.036987	1.879420
588.838867	1199.199463	13393.715820	1381.241089	1.492815
589.179749	1199.199463	13286.765625	1378.965576	1.487199
589.520569	1219.679199	13578.032227	1417.649414	1.601914
589.861450	1212.852539	13985.350586	1376.690063	1.282737
590.202087	1208.301514	13871.575195	1422.200562	1.689129
590.542847	1185.546387	13985.350586	1301.597900	0.906666
590.883484	1215.128052	13958.044922	1435.853638	1.732143
591.224121	1242.434326	13755.523438	1394.894287	1.218404
591.564636	1149.138062	13980.799805	1449.506714	2.340840
591.905151	1187.821899	13509.766602	1431.302612	1.975993
592.245667	1251.536499	13425.572266	1472.261963	1.813084
592.585999	1180.995239	13553.001953	1374.414551	1.563362
592.926453	1235.607788	13641.747070	1358.485962	0.990463
593.266724	1160.515625	13482.460938	1401.720825	1.957525
593.607056	1112.729614	13357.306641	1374.414551	2.137150
593.947388	1155.964600	13500.665039	1435.853638	2.267281
594.287476	1196.923950	13700.911133	1431.302612	1.874431
594.627686	1187.821899	13675.879883	1435.853638	1.986151
594.967773	1178.719727	13933.013672	1367.588013	1.480821
595.307861	1096.801025	13864.748047	1483.639526	3.029763
595.647888	1194.648438	14067.269531	1426.751587	1.803076
595.987854	1201.474976	14151.463867	1426.751587	1.739589
596.327820	1196.923950	14481.414063	1381.241089	1.387461
596.667725	1199.199463	14840.946289	1460.884399	1.918266
597.007568	1196.923950	15391.623047	1488.190552	2.051939
597.347351	1155.964600	15600.970703	1374.414551	1.512287
597.687073	1146.862427	16051.523438	1424.476074	1.862596
598.026794	1178.719727	16106.136719	1497.292725	2.134147
598.366455	1190.097412	15648.756836	1497.292725	2.124646
598.706116	1162.791138	15129.937500	1413.098389	1.792114
599.045654	1215.128052	14825.017578	1408.547363	1.421167
599.385193	1196.923950	14226.555664	1413.098389	1.659099
599.724731	1146.862427	13632.645508	1447.231201	2.405686
600.064087	1151.413574	13466.532227	1483.639526	2.697708
600.403564	1149.138062	13061.489258	1417.649414	2.254058
600.742920	1206.026001	13097.897461	1399.445313	1.626483
601.082153	1130.933838	12827.110352	1438.129150	2.626459
601.421387	1274.291626	12756.569336	1444.955688	1.486326
601.760620	1192.372925	12742.916016	1410.822876	1.891253
602.099854	1212.852539	12854.416992	1469.986450	2.208757
602.438843	1201.474976	12699.681641	1294.771362	0.811399
602.778015	1169.617676	13177.541016	1460.884399	2.425621
603.117065	1187.821899	13077.417969	1451.782227	2.220095
603.456055	1244.709839	13725.941406	1397.169800	1.221514
603.794983	1099.076538	13860.197266	1388.067749	2.264622
604.133850	1178.719727	14740.824219	1451.782227	2.013423
604.472778	1126.382813	15220.958984	1454.057739	2.324830
604.811584	1119.556274	15437.132813	1492.741699	2.606485
605.150330	1153.689087	15899.063477	1463.159912	2.098766
605.489075	1165.066650	16320.035156	1444.955688	1.846847
605.827698	1162.791138	15924.094727	1508.670288	2.343148
606.166382	1215.128052	15960.502930	1463.159912	1.682099
606.504883	1142.311401	15205.030273	1451.782227	2.200647
606.843445	1103.627563	14829.569336	1408.547363	2.221486
607.181946	1151.413574	14465.485352	1488.190552	2.529481
607.520386	1171.893188	13930.738281	1388.067749	1.694311
607.858826	1133.209351	13170.714844	1403.996338	2.249527
608.197083	1187.821899	13598.512695	1433.578125	1.980198
608.535461	1178.719727	13261.735352	1440.404663	2.165725
608.873718	1117.280762	13211.673828	1419.924927	2.502351
609.211914	1142.311401	13343.654297	1378.965576	1.939575
609.550171	1185.546387	13832.890625	1422.200562	1.871177
609.888245	1144.586914	14456.383789	1483.639526	2.547009
610.226318	1210.577026	14447.281250	1385.792114	1.323706
610.564392	1199.199463	14360.811523	1467.710938	2.040111
610.902344	1235.607788	14488.241211	1378.965576	1.081731
611.240295	1160.515625	14324.403320	1469.986450	2.350908
611.578247	1160.515625	14001.279297	1390.343262	1.789828
611.916138	1160.515625	13548.451172	1360.761475	1.616459
612.253845	1203.750488	13188.918945	1440.404663	1.974559
612.591675	1158.240112	12831.662109	1394.894287	2.027291
612.929382	1151.413574	12629.140625	1347.108276	1.704995
613.267090	1155.964600	12212.719727	1342.557251	1.687590
613.604736	1180.995239	11991.994141	1342.557251	1.494423
613.942261	1151.413574	11910.076172	1274.291626	1.142131
614.279785	1203.750488	11807.677734	1326.628662	1.158799
614.617310	1233.332275	11630.186523	1312.975464	0.766032
614.954712	1103.627563	11666.594727	1424.476074	3.037485
615.292175	1128.658325	11495.930664	1372.139038	2.348551
615.629517	1121.831787	11457.247070	1287.944824	1.607222
615.966797	1194.648438	11454.971680	1351.659302	1.530272
616.304138	1146.862427	11236.521484	1312.975464	1.646369
616.641296	1187.821899	11436.767578	1353.934937	1.620782
616.978516	1149.138062	11231.970703	1344.832764	1.940870
617.315552	1199.199463	11263.828125	1408.547363	2.080036
617.652771	1140.035889	11277.481445	1322.077637	1.795736
617.989685	1174.168701	11607.431641	1431.302612	2.464559
618.326721	1199.199463	11461.797852	1417.649414	2.128603
618.663696	1180.995239	11354.848633	1374.414551	1.901141
619.000549	1221.954712	11307.062500	1351.659302	1.286100
619.337463	1153.689087	11484.553711	1315.250977	1.563876
619.674194	1196.923950	11165.980469	1365.312500	1.689112
620.010986	1210.577026	11352.573242	1322.077637	1.099395
620.347778	1192.372925	11284.307617	1369.863525	1.758737
620.684387	1153.689087	11245.624023	1363.036987	2.074408
621.020996	1219.679199	11097.714844	1381.241089	1.635567
621.357605	1165.066650	11191.011719	1317.526489	1.520653
621.694214	1203.750488	10879.264648	1317.526489	1.175917
622.030579	1215.128052	10890.642578	1246.985352	0.329257
622.367065	1210.577026	10895.193359	1333.455200	1.268798
622.703430	1185.546387	10710.875977	1385.792114	2.102245
623.039795	1196.923950	10808.723633	1372.139038	1.822917
623.376160	1153.689087	10804.172852	1406.271851	2.617307
623.712402	1221.954712	10697.223633	1363.036987	1.488953
624.048645	1155.964600	10888.367188	1349.383789	1.987374
624.384766	1137.760376	10692.671875	1385.792114	2.595856
624.720886	1187.821899	10779.141602	1385.792114	2.064056
625.057007	1176.444214	10902.020508	1358.485962	1.871784
625.392944	1219.679199	10899.745117	1335.730713	1.198871
625.729004	1203.750488	10913.397461	1347.108276	1.476447
626.064941	1158.240112	11034.000000	1390.343262	2.350231
626.400818	1201.474976	11286.583008	1385.792114	1.827617
626.736633	1128.658325	11548.268555	1356.210449	2.183883
627.072449	1190.097412	11712.105469	1424.476074	2.227509
627.408264	1142.311401	11973.790039	1349.383789	1.911765
627.743896	1262.914063	11937.381836	1363.036987	0.937966
628.079590	1174.168701	12060.259766	1358.485962	1.693145
628.415161	1176.444214	11750.789063	1376.690063	1.893695
628.750793	1194.648438	11520.961914	1324.353149	1.256060
629.086365	1224.230225	11414.012695	1417.649414	1.898168
629.421753	1153.689087	11188.735352	1385.792114	2.312924
629.757263	1169.617676	11225.144531	1369.863525	1.991401
630.092651	1162.791138	10776.866211	1451.782227	3.005917
630.427917	1151.413574	10863.335938	1403.996338	2.600749
630.763184	1135.484863	10635.784180	1365.312500	2.419162
631.098511	1146.862427	10501.528320	1467.710938	3.429823
631.433716	1169.617676	10499.252930	1342.557251	1.853659
631.768799	1203.750488	10560.692383	1294.771362	0.972763
632.103943	1174.168701	10116.965820	1376.690063	2.264631
632.438965	1162.791138	10025.944336	1353.934937	2.156612
632.773987	1190.097412	9930.373047	1303.873413	1.301744
633.109070	1142.311401	10005.464844	1322.077637	2.028242
633.443848	1185.546387	9725.576172	1344.832764	1.865174
633.778870	1133.209351	9971.332031	1306.148926	1.956746
634.113708	1228.781250	9900.791016	1401.720825	1.994227
634.448425	1115.005249	10107.863281	1410.822876	3.289473
634.783264	1155.964600	10151.098633	1381.241089	2.504426
635.117859	1180.995239	10157.924805	1269.740601	0.988594
635.452576	1196.923950	10041.873047	1351.659302	1.749420
635.787170	1151.413574	9957.678711	1326.628662	1.989664
636.121704	1190.097412	9773.362305	1338.006226	1.723223
636.456177	1224.230225	9702.820313	1353.934937	1.529791
636.790588	1146.862427	9384.248047	1301.597900	1.878454
637.125122	1124.107300	9513.952148	1331.179688	2.468131
637.459412	1160.515625	9445.686523	1378.965576	2.636638
637.793762	1242.434326	9263.645508	1326.628662	1.049646
638.128052	1124.107300	9147.593750	1281.118164	1.956891
638.462280	1201.474976	9063.399414	1251.536499	0.636759
638.796509	1155.964600	9215.859375	1324.353149	2.089215
639.130615	1108.178589	8983.755859	1317.526489	2.658191
639.464722	1155.964600	8954.174805	1324.353149	2.159323
639.798767	1167.342163	8874.531250	1237.883301	0.915264
640.132751	1192.372925	9081.603516	1258.363037	0.836458
640.466736	1201.474976	8662.907227	1344.832764	1.921317
640.800598	1249.260864	8558.233398	1340.281738	1.245331
641.134521	1117.280762	8637.876953	1333.455200	2.874432
641.468262	1121.831787	8446.733398	1301.597900	2.454178
641.802063	1171.893188	8408.049805	1240.158813	0.943396
642.135803	1208.301514	8396.671875	1303.873413	1.329535
642.469421	1187.821899	8342.059570	1292.495850	1.463104
642.803101	1155.964600	8294.273438	1319.802124	2.295187
643.136658	1153.689087	8200.976563	1303.873413	2.131094
643.470215	1169.617676	8291.998047	1312.975464	2.012779
643.803711	1224.230225	8294.273438	1283.393677	0.836819
644.137085	1110.454102	8200.976563	1276.567139	2.342747
644.470581	1133.209351	8223.732422	1269.740601	1.925546
644.803833	1226.505737	8282.895508	1312.975464	1.225410
645.137207	1169.617676	8189.599121	1290.220337	1.717991
645.470459	1178.719727	8134.986816	1326.628662	2.126269
645.803589	1146.862427	8223.732422	1317.526489	2.411576
646.136780	1167.342163	8134.986816	1278.842651	1.600261
646.469849	1201.474976	8401.222656	1356.210449	2.149179
646.802979	1215.128052	8109.956055	1287.944824	1.056107
647.135986	1251.536499	8330.681641	1290.220337	0.546448
647.468994	1185.546387	8278.344727	1324.353149	1.957010
647.801941	1126.382813	8319.303711	1410.822876	3.954444
648.134766	1126.382813	8239.661133	1383.516602	3.614842
648.467651	1196.923950	8169.119629	1251.536499	0.783291
648.800354	1162.791138	8355.711914	1233.332275	0.980702
649.133179	1126.382813	8205.528320	1287.944824	2.282225
649.465881	1201.474976	8139.538086	1397.169800	2.820597
649.798462	1187.821899	8367.089844	1383.516602	2.725831
650.131104	1201.474976	8264.691406	1326.628662	1.771908
650.463623	1190.097412	8150.915527	1303.873413	1.634520
650.796143	1153.689087	8171.395020	1333.455200	2.561608
651.128662	1158.240112	8235.109375	1240.158813	1.157556
651.461060	1133.209351	8232.833984	1344.832764	2.980769
651.793396	1183.270874	8348.885742	1365.312500	2.540489
652.125732	1194.648438	8237.385742	1256.087524	0.872375
652.458008	1153.689087	8287.446289	1333.455200	2.519936
652.790222	1128.658325	8323.855469	1231.056763	1.423150
653.122437	1201.474976	8087.201172	1367.588013	2.412426
653.454529	1190.097412	8066.721191	1272.016113	1.191263
653.786621	1165.066650	7955.220703	1374.414551	3.083110
654.118713	1183.270874	8066.721191	1312.975464	1.884296
654.450623	1185.546387	8071.272461	1342.557251	2.280237
654.782654	1153.689087	7996.180176	1342.557251	2.760225
655.114502	1287.944824	8057.619141	1301.597900	0.201680
655.446350	1096.801025	7836.893555	1276.567139	2.667116
655.778198	1192.372925	7941.567383	1333.455200	2.090357
656.109863	1196.923950	7984.802734	1324.353149	1.877305
656.441650	1126.382813	7839.168945	1306.148926	2.677966
656.773254	1171.893188	7845.995605	1335.730713	2.454825
657.104919	1190.097412	7784.556641	1378.965576	2.864043
657.436462	1171.893188	7845.995605	1394.894287	3.341290
657.767944	1212.852539	7955.220703	1331.179688	1.754979
658.099548	1228.781250	8055.343750	1322.077637	1.366667
658.430908	1187.821899	8048.517090	1306.148926	1.724709
658.762268	1119.556274	8219.180664	1322.077637	2.852564
659.093628	1101.352051	8489.967773	1349.383789	3.356945
659.424927	1174.168701	8858.602539	1369.863525	2.546639
659.756226	1133.209351	9029.266602	1231.056763	1.239193
660.087341	1219.679199	9270.471680	1356.210449	1.695873
660.418518	1192.372925	9231.788086	1331.179688	1.726578
660.749573	1167.342163	9190.828125	1429.027100	3.261487
661.080627	1128.658325	9040.644531	1383.516602	3.221167
661.411621	1158.240112	8940.521484	1351.659302	2.485379
661.742554	1149.138062	8838.123047	1349.383789	2.604319
662.073547	1169.617676	8378.467773	1372.139038	2.809344
662.404297	1153.689087	8514.999023	1374.414551	2.998454
662.735229	1199.199463	8166.844238	1326.628662	1.828871
663.065979	1199.199463	7950.669922	1301.597900	1.516683
663.396667	1162.791138	7882.404297	1328.904175	2.472062
663.727417	1167.342163	7682.158203	1333.455200	2.549773
664.057922	1221.954712	7761.801270	1274.291626	0.800277
664.388611	1194.648438	7452.330566	1256.087524	0.981819
664.719116	1190.097412	7588.861816	1312.975464	1.920340
665.049622	1208.301514	7459.157227	1269.740601	0.982891
665.380005	1210.577026	7386.340332	1297.046875	1.400148
665.710388	1190.097412	7393.166992	1338.006226	2.384446
666.040771	1165.066650	7156.512695	1283.393677	1.974933
666.371033	1199.199463	7386.340332	1283.393677	1.360794
666.701294	1235.607788	7224.778320	1251.536499	0.265959
667.031555	1105.903076	7176.992676	1308.424438	3.335832
667.361633	1165.066650	7340.830078	1240.158813	1.215917
667.691772	1174.168701	7249.809082	1231.056763	0.936330
668.021790	1244.709839	7206.574219	1308.424438	1.068703
668.351807	1160.515625	7147.410645	1206.026001	0.760167
668.681763	1174.168701	7158.788574	1317.526489	2.395437
669.011719	1117.280762	7147.410645	1319.802124	3.358491
669.341614	1133.209351	7258.911133	1274.291626	2.303120
669.671387	1153.689087	7122.379883	1283.393677	2.173083
670.001221	1199.199463	7304.421875	1333.455200	2.199031
670.330933	1196.923950	7258.911133	1360.761475	2.702703
670.660583	1208.301514	7197.472168	1272.016113	1.063830
670.990173	1242.434326	7447.779785	1353.934937	1.796848
671.319763	1201.474976	7035.910156	1297.046875	1.638066
671.649292	1208.301514	7090.522949	1217.403687	0.154740
671.978821	1133.209351	7051.838867	1319.802124	3.152635
672.308289	1187.821899	7040.461426	1333.455200	2.488335
672.637695	1201.474976	7076.869629	1249.260864	0.813322
672.966980	1096.801025	6801.531738	1217.403687	2.114082
673.296326	1126.382813	6840.215332	1281.118164	2.708083
673.625610	1224.230225	6662.725098	1267.465088	0.794978
673.954773	1178.719727	6819.735840	1262.914063	1.492538
674.283936	1119.556274	6812.909180	1274.291626	2.717825
674.613037	1180.995239	6771.949707	1287.944824	1.912904
674.942078	1196.923950	6751.470215	1274.291626	1.392871
675.271118	1155.964600	6635.418457	1276.567139	2.200995
675.600098	1251.536499	6785.603027	1265.189575	0.246710
675.928955	1203.750488	6435.172852	1294.771362	1.739888
676.257813	1174.168701	6430.621582	1312.975464	2.640692
676.586670	1158.240112	6703.684082	1253.812012	1.723431
676.915466	1215.128052	6610.387695	1317.526489	1.897933
677.244141	1233.332275	6692.306641	1269.740601	0.666944
677.572876	1185.546387	6551.224609	1244.709839	1.102628
677.901489	1208.301514	6564.877441	1212.852539	0.084961
678.230042	1215.128052	6476.132324	1285.669312	1.340833
678.558594	1149.138062	6669.551270	1294.771362	2.638087
678.887085	1165.066650	6580.806152	1281.118164	2.142856
679.215515	1117.280762	6740.092773	1233.332275	2.063941
679.543945	1187.821899	6826.562500	1283.393677	1.694914
679.872253	1221.954712	6963.093750	1246.985352	0.435987
680.200562	1196.923950	7117.829102	1301.597900	1.767871
680.528809	1165.066650	7038.186035	1249.260864	1.433552
680.856995	1192.372925	7208.850098	1306.148926	1.891073
681.185120	1140.035889	7297.595215	1301.597900	2.623799
681.513306	1183.270874	7261.187012	1242.434326	0.973417
681.841309	1115.005249	7329.452637	1262.914063	2.380080
682.169373	1190.097412	7302.146484	1294.771362	1.712584
682.497314	1171.893188	7288.493164	1274.291626	1.674107
682.825134	1155.964600	7190.645508	1328.904175	2.865762
683.153076	1201.474976	7149.686523	1326.628662	2.104056
683.480896	1180.995239	6938.062988	1328.904175	2.569171
683.808655	1162.791138	6906.205566	1297.046875	2.337560
684.136414	1208.301514	6885.726074	1281.118164	1.282565
684.464050	1224.230225	6639.969727	1203.750488	-0.378152
684.791626	1155.964600	6507.989258	1335.730713	3.358843
685.119263	1201.474976	6667.275879	1297.046875	1.748543
685.446838	1146.862427	6453.376953	1294.771362	2.787308
685.774292	1119.556274	6339.601074	1249.260864	2.484741
686.101685	1137.760376	6414.693359	1310.699951	3.277274
686.429077	1094.525513	6241.753418	1322.077637	4.420867
686.756348	1137.760376	6216.722656	1269.740601	2.598567
687.083679	1180.995239	6259.957520	1276.567139	1.881721
687.410950	1119.556274	6423.795410	1285.669312	3.131703
687.738159	1180.995239	6394.213379	1278.842651	1.876910
688.065308	1233.332275	6321.396973	1269.740601	0.715563
688.392395	1246.985352	6403.315430	1287.944824	0.794353
688.719421	1183.270874	6441.999512	1290.220337	2.033751
689.046448	1221.954712	6414.693359	1294.771362	1.402278
689.373413	1162.791138	6280.437500	1310.699951	2.890172
689.700317	1208.301514	6364.631836	1342.557251	2.603707
690.027100	1196.923950	6259.957520	1310.699951	2.247190
690.353943	1203.750488	6189.416504	1283.393677	1.597443
690.680725	1142.311401	6064.262695	1283.393677	2.866389
691.007446	1167.342163	6137.079590	1290.220337	2.472528
691.334106	1130.933838	5948.211426	1267.465088	2.834199
691.660645	1062.668213	5927.731445	1226.505737	3.367634
691.987244	1151.413574	5825.333008	1167.342163	0.340797
692.313721	1199.199463	5677.424316	1301.597900	2.286586
692.640259	1087.698975	5638.740723	1233.332275	3.199999
692.966675	1144.586914	5561.373047	1301.597900	3.554870
693.293030	1201.474976	5552.270996	1253.812012	1.202930
693.619324	1206.026001	5461.250000	1192.372925	-0.320854
693.945618	1169.617676	5675.148926	1249.260864	1.767676
694.271851	1171.893188	5452.147949	1240.158813	1.594896
694.598083	1212.852539	5436.219238	1215.128052	0.053879
694.924194	1174.168701	5381.606934	1246.985352	1.730665
695.250244	1183.270874	5361.126953	1178.719727	-0.108935
695.576294	1190.097412	5424.841797	1274.291626	1.988177
695.902283	1146.862427	5565.923828	1265.189575	2.677653
696.228210	1185.546387	5484.005371	1249.260864	1.482263
696.554138	1183.270874	5504.484863	1265.189575	1.895734
696.879944	1178.719727	5611.434082	1237.883301	1.334703
697.205750	1196.923950	5458.974609	1237.883301	0.961024
697.531433	1151.413574	5618.260742	1258.363037	2.394294
697.857178	1190.097412	5738.863281	1256.087524	1.450726
698.182739	1158.240112	5950.486816	1242.434326	1.756884
698.508423	1206.026001	6155.283691	1240.158813	0.689655
698.833984	1185.546387	6469.305664	1231.056763	0.861326
699.159485	1101.352051	6678.653320	1315.250977	3.835169
699.484924	1153.689087	6740.092773	1315.250977	2.892055
699.810303	1142.311401	6965.369141	1237.883301	1.641267
700.135681	1140.035889	7029.083984	1233.332275	1.584236
700.460999	1219.679199	6851.593262	1324.353149	1.858586
700.786255	1206.026001	6592.183594	1340.281738	2.492607
701.111450	1167.342163	6376.009277	1231.056763	1.223242
701.436646	1144.586914	6244.029297	1290.220337	2.855870
701.761719	1192.372925	5998.272949	1335.730713	2.982954
702.086792	1165.066650	6016.477051	1297.046875	2.720451
702.411865	1155.964600	5807.128906	1217.403687	1.320940
702.736816	1215.128052	5668.322266	1274.291626	1.328565
703.061646	1162.791138	5547.719727	1256.087524	2.127660
703.386536	1194.648438	5251.901855	1285.669312	2.243411
703.711365	1219.679199	5311.065430	1256.087524	0.889877
704.036194	1196.923950	5124.472656	1224.230225	0.695250
704.360901	1174.168701	5022.074219	1235.607788	1.596689
704.685547	1162.791138	4915.125000	1194.648438	0.849000
705.010132	1208.301514	5067.584961	1253.812012	1.179247
705.334717	1121.831787	4960.635254	1235.607788	2.963840
705.659302	1228.781250	4812.726563	1221.954712	-0.190476
705.983765	1140.035889	4721.705566	1142.311401	0.063532
706.308228	1274.291626	4821.828613	1144.586914	-3.656190
706.632568	1133.209351	4780.869141	1251.536499	3.243920
706.956909	1119.556274	4799.073242	1217.403687	2.659246
707.281189	1140.035889	4815.001953	1208.301514	1.857585
707.605408	1158.240112	4835.481934	1215.128052	1.547027
707.929626	1183.270874	4762.665039	1251.536499	1.907184
708.253784	1167.342163	4958.359863	1317.526489	3.961583
708.577820	1226.505737	4794.522461	1226.505737	0.000000
708.901855	1146.862427	4694.399414	1233.332275	2.437461
709.225830	1221.954712	4787.695801	1233.332275	0.319080
709.549805	1171.893188	4815.001953	1308.424438	3.747658
709.873718	1185.546387	4944.706543	1251.536499	1.755448
710.197510	1153.689087	4944.706543	1183.270874	0.780313
710.521362	1233.332275	5094.891113	1206.026001	-0.707131
710.845093	1192.372925	4910.573730	1180.995239	-0.306000
711.168701	1160.515625	5001.594727	1256.087524	2.488152
711.492432	1149.138062	5044.829590	1240.158813	2.336447
711.816040	1119.556274	5094.891113	1328.904175	5.266170
712.139587	1199.199463	5103.993164	1212.852539	0.349649
712.463074	1146.862427	5242.799805	1219.679199	1.777780
712.786499	1176.444214	5438.494629	1294.771362	2.776296
713.109924	1155.964600	5245.075684	1281.118164	3.060655
713.433350	1190.097412	5210.942871	1326.628662	3.395586
713.756592	1155.964600	5113.095215	1201.474976	1.150085
714.079834	1196.923950	5074.411621	1287.944824	2.347419
714.403015	1165.066650	4956.084473	1246.985352	2.160863
714.726196	1192.372925	4935.604492	1301.597900	2.917933
715.049255	1171.893188	4903.747559	1201.474976	0.792683
715.372375	1249.260864	4901.471680	1272.016113	0.623054
715.695435	1174.168701	4910.573730	1249.260864	2.009744
716.018311	1187.821899	4896.920898	1233.332275	1.226993
716.341248	1178.719727	4894.645020	1246.985352	1.837110
716.664063	1176.444214	4919.675781	1331.179688	4.133740
716.987000	1210.577026	4924.227051	1190.097412	-0.551469
717.309692	1165.066650	4919.675781	1219.679199	1.454547
717.632385	1183.270874	4755.838379	1196.923950	0.382164
717.955078	1105.903076	4794.522461	1287.944824	4.935227
718.277649	1155.964600	4610.205078	1217.403687	1.778657
718.600220	1208.301514	4723.980957	1196.923950	-0.323623
718.922791	1226.505737	4683.021973	1226.505737	0.000000
719.245300	1133.209351	4448.643066	1283.393677	4.529855
719.567688	1224.230225	4291.632324	1276.567139	1.706229
719.890015	1224.230225	4355.346680	1228.781250	0.145348
720.212341	1176.444214	4268.876953	1260.638550	2.722592
720.534607	1194.648438	4232.468750	1240.158813	1.498126
720.856873	1121.831787	4141.447754	1322.077637	6.631501
721.179016	1140.035889	4066.355713	1233.332275	3.188181
721.501160	1151.413574	4118.692871	1160.515625	0.306747
721.823242	1171.893188	4109.590332	1253.812012	2.788539
722.145264	1151.413574	4159.651855	1287.944824	4.538579
722.467224	1208.301514	3991.263428	1281.118164	2.616516
722.789185	1155.964600	4073.182129	1297.046875	4.836193
723.111023	1167.342163	4084.559814	1249.260864	2.808110
723.432861	1219.679199	3902.518066	1228.781250	0.339269
723.754578	1149.138062	4052.702637	1262.914063	3.918494
724.076294	1192.372925	3979.885986	1290.220337	3.510205
724.397949	1199.199463	3836.528076	1212.852539	0.517686
724.719666	1133.209351	3988.988037	1221.954712	3.107571
725.041260	1178.719727	4014.018799	1199.199463	0.722313
725.362732	1158.240112	4029.947266	1272.016113	3.961964
725.684265	1096.801025	4043.600586	1301.597900	6.949807
726.005676	1158.240112	3984.437012	1215.128052	2.012880
726.327087	1221.954712	3836.528076	1219.679199	-0.087032
726.648438	1169.617676	3968.508301	1208.301514	1.382113
726.969666	1221.954712	3986.712402	1249.260864	0.987651
727.290894	1228.781250	3938.926514	1278.842651	1.847185
727.612061	1126.382813	4050.427002	1260.638550	4.591440
727.933228	1244.709839	4070.906738	1269.740601	0.885669
728.254395	1135.484863	4268.876953	1240.158813	3.340595
728.575378	1144.586914	4257.499512	1249.260864	3.362573
728.896301	1124.107300	4080.008789	1235.607788	3.772131
729.217285	1176.444214	4186.958496	1292.495850	3.854878
729.538147	1158.240112	4289.356934	1203.750488	1.453487
729.858948	1194.648438	4243.846191	1224.230225	0.970150
730.179810	1153.689087	4227.917480	1215.128052	1.998517
730.500549	1226.505737	4202.886719	1242.434326	0.535166
730.821228	1180.995239	4095.937500	1228.781250	1.639347
731.141846	1155.964600	4225.642090	1246.985352	2.965157
731.462402	1235.607788	4250.672852	1196.923950	-1.283018
731.782898	1167.342163	4241.570801	1224.230225	1.850483
732.103455	1249.260864	4223.366699	1233.332275	-0.535576
732.423889	1235.607788	4159.651855	1292.495850	1.945527
732.744263	1178.719727	4243.846191	1274.291626	3.118041
733.064636	1237.883301	4264.326172	1224.230225	-0.451126
733.384888	1201.474976	4202.886719	1358.485962	5.231238
733.705200	1190.097412	4221.091309	1315.250977	4.129126
734.025330	1208.301514	4234.744141	1233.332275	0.827069
734.345520	1224.230225	4330.315918	1272.016113	1.538460
734.665527	1210.577026	4166.478516	1262.914063	1.770595
734.985596	1206.026001	4086.835449	1283.393677	2.685623
735.305542	1171.893188	4180.131836	1328.904175	5.219366
735.625549	1158.240112	4025.396240	1285.669312	4.444446
735.945435	1140.035889	3934.375488	1251.536499	3.990231
736.265259	1219.679199	3995.814453	1237.883301	0.655735
736.585083	1201.474976	3922.997803	1242.434326	1.505016
736.904785	1135.484863	3834.252441	1240.158813	3.878583
737.224426	1196.923950	3888.864990	1224.230225	1.014371
737.544128	1155.964600	3904.793701	1228.781250	2.649006
737.863708	1194.648438	3818.323975	1253.812012	2.254988
738.183289	1153.689087	3816.048340	1208.301514	2.051279
738.502808	1246.985352	3893.416016	1251.536499	0.171973
738.822205	1185.546387	3761.435791	1278.842651	3.621905
739.141541	1178.719727	3970.783691	1312.975464	4.808476
739.460938	1217.403687	3784.191162	1226.505737	0.354609
739.780212	1190.097412	3970.783691	1308.424438	4.255317
740.099426	1228.781250	4007.192139	1292.495850	2.293203
740.418640	1206.026001	3988.988037	1340.281738	4.824203
740.737793	1149.138062	4041.324951	1262.914063	3.933909
741.056885	1169.617676	3991.263428	1297.046875	4.516130
741.375977	1174.168701	3913.895752	1269.740601	3.488373
741.694946	1160.515625	3995.814453	1240.158813	2.808987
742.013855	1199.199463	3888.864990	1281.118164	3.045684
742.332703	1137.760376	3781.915527	1287.944824	5.679865
742.651550	1228.781250	3629.455566	1310.699951	3.412320
742.970398	1158.240112	3611.251465	1269.740601	4.545454
743.289124	1169.617676	3702.272461	1244.709839	2.964958
743.607788	1196.923950	3761.435791	1251.536499	2.129550
743.926453	1190.097412	3524.781738	1281.118164	3.898632
744.245056	1083.147949	3711.374512	1235.607788	5.800864
744.563599	1158.240112	3554.363525	1274.291626	4.843303
744.882141	1171.893188	3652.210938	1297.046875	5.045873
745.200500	1135.484863	3568.016602	1303.873413	6.922358
745.518860	1240.158813	3618.078125	1260.638550	0.861246
745.837219	1130.933838	3508.853027	1319.802124	7.942586
746.155518	1167.342163	3593.047363	1308.424438	5.816135
746.473755	1144.586914	3458.791504	1246.985352	4.424779
746.791992	1240.158813	3572.567627	1285.669312	1.951223
747.110107	1155.964600	3458.791504	1315.250977	6.916993
747.428162	1251.536499	3486.097900	1292.495850	1.832993
747.746216	1149.138062	3495.199951	1287.944824	5.916585
748.064148	1158.240112	3438.312012	1399.445313	10.578842
748.382080	1192.372925	3524.781738	1310.699951	5.073169
748.700073	1119.556274	3508.853027	1356.210449	9.904762
749.017822	1153.689087	3431.485352	1335.730713	7.992006
749.335632	1126.382813	3454.240479	1310.699951	7.917887
749.653320	1206.026001	3538.434814	1285.669312	3.414638
749.971008	1174.168701	3529.332764	1358.485962	7.826090
750.288696	1183.270874	3522.506104	1333.455200	6.420231
750.606262	1105.903076	3595.322754	1297.046875	7.678247
750.923828	1187.821899	3497.475586	1301.597900	4.926106
751.241272	1210.577026	3620.353516	1287.944824	3.210580
751.558716	1199.199463	3533.883789	1360.761475	6.920080
751.876038	1215.128052	3438.312012	1317.526489	4.605936
752.193481	1174.168701	3351.842041	1378.965576	9.404389
752.510681	1137.760376	3422.383301	1351.659302	9.362548
752.827942	1176.444214	3417.832275	1363.036987	8.324876
753.145081	1124.107300	3486.097900	1360.761475	10.019268
753.462219	1151.413574	3345.015625	1303.873413	6.950205
753.779297	1185.546387	3504.302002	1349.383789	7.065747
754.096375	1105.903076	3379.148438	1312.975464	9.109109
754.413330	1201.474976	3349.566650	1467.710938	12.394068
754.730286	1140.035889	3433.760986	1347.108276	9.027777
755.047119	1192.372925	3445.138428	1360.761475	7.474748
755.363892	1085.423462	3342.739990	1408.547363	14.314515
755.680725	1155.964600	3342.739990	1349.383789	8.844950
755.997498	1203.750488	3269.923340	1363.036987	7.709253
756.314148	1219.679199	3306.331787	1394.894287	8.396946
756.630737	1183.270874	3345.015625	1385.792114	9.368417
756.947327	1165.066650	3242.617188	1310.699951	7.009856
757.263855	1174.168701	3253.994629	1444.955688	13.019694
757.580261	1187.821899	3292.678711	1358.485962	8.108108
757.896729	1208.301514	3333.637939	1488.190552	13.169164
758.213074	1180.995239	3420.107666	1476.812988	13.211385
758.529419	1149.138062	3263.096924	1474.537476	15.392892
758.845642	1192.372925	3367.770752	1479.088501	13.179914
759.161865	1199.199463	3372.321777	1383.516602	8.481673
759.478149	1246.985352	3451.965088	1451.782227	9.287926
759.794189	1233.332275	3424.658691	1403.996338	7.788163
760.110229	1162.791138	3442.863037	1517.772339	15.568861
760.426270	1215.128052	3522.506104	1563.282837	15.088763
760.742249	1192.372925	3515.679688	1501.843750	13.320274
761.058105	1162.791138	3472.444824	1413.098389	10.837436
761.374023	1187.821899	3611.251465	1497.292725	12.769953
761.689819	1092.250000	3411.005615	1606.517700	22.178608
762.005554	1192.372925	3449.689453	1522.323364	14.616934
762.321289	1192.372925	3540.710449	1583.762451	16.666664
762.636902	1206.026001	3486.097900	1469.986450	11.576848
762.952515	1126.382813	3599.874023	1542.803101	16.835325
763.268127	1203.750488	3563.465576	1658.854614	19.286402
763.583618	1151.413574	3674.966064	1672.507813	20.649233
763.899048	1185.546387	4127.794922	1690.711914	17.169369
764.214478	1133.209351	4373.550781	1797.661377	20.505619
764.529785	1183.270874	4689.848145	1784.008301	17.131733
764.845093	1201.474976	4912.849609	1863.651489	17.841814
765.160400	1301.597900	4896.920898	1936.468262	17.658228
765.475586	1187.821899	4749.011719	1849.998413	18.594248
765.790771	1178.719727	4357.622559	1884.131226	22.190407
766.105835	1119.556274	4337.142578	1815.865601	21.640734
766.420837	1142.311401	4250.672852	1802.212524	21.229872
766.735840	1190.097412	4050.427002	1724.844727	18.695305
767.050842	1178.719727	3802.395264	1745.324463	21.595839
767.365662	1242.434326	3706.823486	1784.008301	21.975992
767.680542	1137.760376	3613.527100	1772.630737	25.643385
767.995300	1103.627563	3624.904541	1724.844727	24.638990
768.309998	1176.444214	3597.598389	1692.987427	21.334585
768.624817	1158.240112	3445.138428	1670.232300	22.388060
768.939392	1226.505737	3536.159424	1736.222412	22.068964
769.254028	1183.270874	3367.770752	1699.814087	23.645832
769.568481	1210.577026	3363.219727	1733.946899	24.312902
769.882935	1183.270874	3297.229736	1656.579102	22.389660
770.197388	1194.648438	3226.688477	1674.783325	23.628220
770.511841	1140.035889	3240.341553	1679.334351	25.677141
770.826172	1240.158813	3290.403076	1695.262939	22.197557
771.140442	1251.536499	3215.310791	1702.089600	22.943222
771.454651	1140.035889	3267.647949	1670.232300	24.919788
771.768860	1178.719727	3197.106689	1690.711914	25.366404
772.082886	1153.689087	3110.636963	1620.170776	23.837206
772.397034	1155.964600	3208.484375	1640.650513	23.614189
772.711060	1165.066650	3203.933350	1688.436401	25.669640
773.025024	1196.923950	3083.330566	1686.160889	25.934862
773.338928	1178.719727	3035.544678	1747.599976	30.637259
773.652771	1176.444214	3183.453613	1665.681274	24.376421
773.966614	1171.893188	3096.983887	1720.293701	28.486996
774.280457	1178.719727	3037.820313	1663.405762	26.070995
774.594116	1128.658325	2985.483398	1715.742676	31.617645
774.907776	1124.107300	2990.034424	1736.222412	32.804878
775.221375	1119.556274	2951.350586	1661.130127	29.565210
775.534912	1183.270874	2942.248291	1702.089600	29.495474
775.848450	1224.230225	2960.452637	1758.977539	30.799471
776.161926	1137.760376	2992.309814	1697.538574	30.184053
776.475342	1174.168701	2928.595215	1677.058838	28.664076
776.788696	1192.372925	3010.513916	1656.579102	25.531914
777.101990	1231.056763	2903.564453	1633.823975	24.081636
777.415283	1235.607788	2787.512939	1624.721802	25.073311
777.728516	1256.087524	2876.258301	1654.303589	24.578648
778.041626	1210.577026	2885.360352	1590.588989	22.690216
778.354736	1171.893188	2862.605225	1624.721802	26.783308
778.667725	1251.536499	2821.645752	1608.793213	22.753622
778.980774	1135.484863	2880.809326	1697.538574	32.203392
779.293640	1183.270874	2778.410889	1647.477051	29.101280
779.606567	1206.026001	2785.237549	1686.160889	30.403456
779.919434	1180.995239	2848.952148	1681.609863	30.013643
780.232239	1169.617676	2817.094727	1617.895264	27.209944
780.544983	1158.240112	2810.268311	1579.211426	25.482090
780.857666	1272.016113	2785.237549	1681.609863	27.067667
781.170227	1217.403687	2807.992676	1629.272949	25.894135
781.482849	1219.679199	2855.778564	1677.058838	27.955492
781.795410	1190.097412	2753.380127	1713.467163	33.478893
782.107910	1183.270874	2730.625000	1624.721802	28.529406
782.420288	1206.026001	2712.420898	1622.446289	27.643501
782.732666	1180.995239	2641.879639	1747.599976	38.785049
783.044983	1126.382813	2707.869873	1667.956787	34.244602
783.357300	1144.586914	2805.717041	1663.405762	31.232883
783.669495	1171.893188	2598.644775	1665.681274	34.609253
783.981689	1121.831787	2571.338623	1631.548462	35.164833
784.293762	1126.382813	2639.604248	1658.854614	35.187962
784.605835	1196.923950	2628.226563	1633.823975	30.524643
784.917908	1187.821899	2666.910400	1704.365112	34.923077
785.229858	1171.893188	2578.165039	1620.170776	31.877022
785.541748	1180.995239	2578.165039	1679.334351	35.667755
785.853577	1219.679199	2566.787354	1597.415649	28.040545
786.165405	1124.107300	2596.369141	1706.640625	39.567238
786.477173	1233.332275	2621.399902	1595.140137	26.065578
786.788879	1192.372925	2616.848877	1604.242188	28.913740
787.100525	1144.586914	2539.481201	1572.384888	30.668846
787.412109	1180.995239	2582.716064	1665.681274	34.577930
787.723694	1224.230225	2605.471436	1708.916138	35.090607
788.035156	1233.332275	2610.022461	1663.405762	31.239672
788.346558	1208.301514	2630.501953	1667.956787	32.320007
788.658081	1221.954712	2553.134277	1667.956787	33.504276
788.969360	1133.209351	2782.961914	1724.844727	35.862068
789.280640	1185.546387	2712.420898	1752.151001	37.108788
789.591919	1212.852539	2776.135498	1774.906250	35.953423
789.903076	1192.372925	2894.462402	1754.426514	33.021389
790.214172	1219.679199	2755.655762	1743.048950	34.074070
790.525269	1171.893188	2719.247314	1615.619751	28.676472
790.836365	1160.515625	2769.308838	1681.609863	32.390381
791.147339	1196.923950	2655.532715	1672.507813	32.605309
791.458191	1144.586914	2616.848877	1697.538574	37.557968
791.769104	1153.689087	2557.685303	1663.405762	36.304703
792.079895	1180.995239	2550.858887	1608.793213	31.229239
792.390686	1185.546387	2534.930176	1647.477051	34.232712
792.701416	1185.546387	2548.583252	1626.997314	32.387306
793.012085	1199.199463	2537.205811	1588.313477	29.081627
793.322693	1169.617676	2434.807373	1626.997314	36.151073
793.633240	1140.035889	2475.766602	1595.140137	34.071556
793.943787	1171.893188	2505.348389	1624.721802	33.959042
794.254272	1167.342163	2434.807373	1620.170776	35.727104
794.564636	1176.444214	2350.613037	1586.037964	34.883720
794.875000	1133.209351	2519.001465	1658.854614	37.931034
795.185303	1149.138062	2446.184814	1672.507813	40.350880
795.495544	1176.444214	2409.776611	1595.140137	33.948345
795.805786	1221.954712	2402.949951	1652.028076	36.416180
796.115906	1203.750488	2441.633789	1647.477051	35.845589
796.426025	1130.933838	2405.225586	1551.905151	33.035709
796.736023	1192.372925	2523.552490	1636.099487	33.333336
797.045959	1185.546387	2500.797363	1679.334351	37.543251
797.355896	1153.689087	2644.155273	1626.997314	31.755716
797.665833	1185.546387	2559.960938	1586.037964	29.139067
797.975708	1185.546387	2610.022461	1720.293701	37.539928
798.285461	1165.066650	2578.165039	1729.395752	39.935585
798.595154	1142.311401	2453.011475	1547.354126	30.902777
798.904846	1165.066650	2546.307861	1608.793213	32.125206
799.214478	1151.413574	2612.297852	1642.926025	33.644859
799.524109	1140.035889	2457.562500	1679.334351	40.932644
799.833557	1201.474976	2437.082764	1670.232300	37.937389
800.143005	1158.240112	2343.786377	1524.598877	30.902105
800.452393	1146.862427	2437.082764	1622.446289	36.860672
800.761780	1183.270874	2325.582275	1661.130127	41.832661
801.071106	1169.617676	2375.643799	1563.282837	32.641514
801.380371	1142.311401	2346.062012	1604.242188	38.374294
801.689575	1160.515625	2309.653564	1592.864502	37.623756
801.998718	1146.862427	2325.582275	1592.864502	37.837837
802.307800	1183.270874	2321.031250	1540.527588	31.399996
802.616882	1165.066650	2393.847900	1581.486938	33.888885
802.925903	1155.964600	2293.724854	1567.833862	36.200005
803.234863	1203.750488	2300.551514	1517.772339	28.630703
803.543701	1174.168701	2286.898438	1513.221313	30.470346
803.852539	1155.964600	2314.204590	1520.047852	31.434181
804.161316	1110.454102	2248.214600	1474.537476	32.000000
804.470032	1174.168701	2327.857666	1479.088501	26.429983
804.778809	1153.689087	2177.673340	1499.568237	33.777779
805.087341	1190.097412	2293.724854	1554.180664	32.989689
805.395935	1140.035889	2277.796387	1472.261963	29.200001
805.704468	1183.270874	2268.694336	1524.598877	31.446529
806.012939	1130.933838	2325.582275	1631.548462	41.904766
806.321350	1240.158813	2214.081787	1581.486938	35.046726
806.629761	1203.750488	2398.398926	1520.047852	26.476189
806.938049	1151.413574	2273.245361	1622.446289	41.987820
807.246277	1235.607788	2330.133301	1613.344238	34.511433
807.554504	1140.035889	2350.613037	1597.415649	37.781960
807.862671	1185.546387	2409.776611	1531.425537	28.252787
808.170715	1194.648438	2282.347412	1595.140137	36.820087
808.478821	1190.097412	2241.387939	1547.354126	33.982681
808.786804	1174.168701	2350.613037	1558.731689	32.688583
809.094727	1226.505737	2282.347412	1642.926025	39.439651
809.402649	1210.577026	2248.214600	1542.803101	32.017544
809.710510	1206.026001	2327.857666	1483.639526	24.746450
810.018311	1194.648438	2334.684326	1556.456177	31.736523
810.326050	1142.311401	2252.765625	1611.068726	42.213116
810.633667	1137.760376	2220.908203	1533.701050	36.554630
810.941345	1185.546387	2252.765625	1586.037964	37.526646
811.248901	1190.097412	2241.387939	1538.252075	33.116882
811.556396	1135.484863	2127.612061	1499.568237	36.697247
811.863892	1130.933838	2209.530762	1517.772339	35.864975
812.171326	1187.821899	2189.051025	1595.140137	40.681820
812.478699	1224.230225	2166.295898	1506.394775	29.951685
812.786011	1242.434326	2136.714111	1547.354126	34.096691
813.093262	1174.168701	2148.091553	1497.292725	33.177578
813.400391	1210.577026	2098.030273	1588.313477	42.564095
813.707642	1274.291626	2111.683350	1499.568237	26.902178
814.014709	1258.363037	2132.163086	1499.568237	27.604164
814.321716	1158.240112	2118.509766	1460.884399	31.516594
814.628723	1246.985352	2095.754639	1533.701050	33.780170
814.935669	1203.750488	2223.183838	1488.190552	27.901781
815.242554	1174.168701	2166.295898	1497.292725	32.568810
815.549438	1224.230225	2166.295898	1447.231201	23.671490
815.856201	1199.199463	2145.816162	1554.180664	37.499992
816.162964	1196.923950	2116.234375	1517.772339	34.900986
816.469604	1185.546387	2034.315552	1481.364014	34.852543
816.776184	1171.893188	2159.469238	1481.364014	31.336405
817.082825	1162.791138	2225.459229	1474.537476	29.336191
817.389343	1130.933838	2259.592041	1463.159912	29.435490
817.695801	1176.444214	2136.714111	1481.364014	31.753551
818.002197	1178.719727	2161.744873	1488.190552	31.481476
818.308533	1153.689087	2136.714111	1513.221313	36.574066
818.614868	1231.056763	2138.989502	1492.741699	28.822062
818.921143	1146.862427	2223.183838	1654.303589	47.145878
819.227356	1094.525513	2234.561523	1606.517700	44.910175
819.533447	1206.026001	2223.183838	1469.986450	25.950785
819.839539	1196.923950	2305.102539	1597.415649	36.139637
820.145569	1212.852539	2284.622803	1517.772339	28.450108
820.451538	1208.301514	2341.510986	1601.966675	34.738956
820.757568	1171.893188	2537.205811	1638.375000	34.166668
821.063416	1169.617676	2698.767578	1661.130127	32.142857
821.369263	1180.995239	2721.522949	1840.896362	42.836044
821.675049	1146.862427	2764.757813	1704.365112	34.458511
821.980713	1199.199463	2999.136475	1758.977539	31.099871
822.286438	1149.138062	3185.729004	1911.437500	37.430168
822.592102	1192.372925	3863.834229	2068.448486	32.793869
822.897583	1224.230225	5477.178711	2569.062988	31.621187
823.203125	1235.607788	7759.525879	3461.067139	34.112316
823.508545	1199.199463	9411.553711	4025.396240	34.413963
823.813965	1151.413574	10276.251953	4262.050293	34.089775
824.119263	1199.199463	9281.849609	3916.171387	33.614864
824.424622	1133.209351	8112.231445	3679.517090	36.485165
824.729858	1142.311401	6981.297852	3160.698486	34.567421
825.035095	1176.444214	6030.129883	2894.462402	35.396156
825.340149	1167.342163	5169.983398	2582.716064	35.361000
825.645264	1265.189575	4794.522461	2471.215576	34.171497
825.950256	1210.577026	4519.184082	2270.969727	32.049522
826.255310	1192.372925	4196.060547	2214.081787	34.015152
826.560242	1185.546387	3952.579590	2125.336426	33.963814
826.865112	1135.484863	3752.333740	2034.315552	34.347824
827.169922	1140.035889	3663.588379	2027.489014	35.166817
827.474670	1169.617676	3561.189941	1970.601074	33.491917
827.779419	1212.852539	3950.304199	2118.509766	33.083954
828.084045	1199.199463	4453.194336	2275.520752	33.076920
828.388672	1167.342163	4865.063477	2480.317627	35.507690
828.693176	1130.933838	5024.350098	2500.797363	35.184101
828.997681	1208.301514	4607.929688	2359.715088	33.868809
829.302124	1112.729614	4050.427002	2150.367188	35.321461
829.606567	1119.556274	3556.638916	2118.509766	40.989727
829.910828	1199.199463	3338.188965	1856.824951	30.744680
830.215149	1215.128052	3069.677490	1838.620850	33.619637
830.519348	1144.586914	2914.942139	1761.253052	34.832905
830.823547	1099.076538	2712.420898	1845.447388	46.262341
831.127686	1167.342163	2707.869873	1704.365112	34.859676
831.431763	1155.964600	2523.552490	1647.477051	35.940098
831.735779	1210.577026	2478.042236	1583.762451	29.443445
832.039734	1176.444214	2366.541748	1535.976563	30.210327
832.343628	1149.138062	2243.663574	1515.496826	33.471924
832.647461	1124.107300	2232.285889	1551.905151	38.603691
832.951233	1155.964600	2277.796387	1531.425537	33.468559
833.255127	1180.995239	2334.684326	1472.261963	25.246553
833.558777	1146.862427	2230.010498	1545.078613	36.764706
833.862366	1196.923950	2468.940186	1517.772339	25.223608
834.165955	1117.280762	2575.889648	1711.191650	40.717625
834.469482	1155.964600	3026.442627	1765.804199	32.603409
834.773010	1185.546387	3358.668701	1875.029175	31.727749
835.076416	1167.342163	3652.210938	2000.182739	33.516483
835.379822	1199.199463	3549.812500	1970.601074	32.817039
835.683105	1149.138062	3376.872803	1911.437500	34.218590
835.986389	1174.168701	3046.922363	1863.651489	36.816525
836.289612	1121.831787	2926.319824	1806.763550	37.957123
836.592773	1103.627563	2712.420898	1736.222412	39.321075
836.895874	1212.852539	2591.818115	1711.191650	36.138618
837.198914	1133.209351	2505.348389	1652.028076	37.810944
837.501892	1165.066650	2357.439453	1497.292725	27.862600
837.804871	1187.821899	2398.398926	1542.803101	29.323305
838.107666	1121.831787	2202.704102	1524.598877	37.263153
838.410583	1183.270874	2120.785400	1556.456177	39.805817
838.713379	1153.689087	2138.989502	1490.466064	34.180130
839.016052	1219.679199	2000.182739	1447.231201	29.154512
839.318787	1146.862427	1888.682251	1406.271851	34.969330
839.621338	1224.230225	1904.610962	1410.822876	27.424740
839.923889	1206.026001	1886.406738	1474.537476	39.464886
840.226440	1196.923950	1986.529663	1363.036987	21.037466
840.528931	1210.577026	1970.601074	1413.098389	26.646704
840.831299	1226.505737	2123.060791	1465.435425	26.649752
841.133606	1174.168701	2152.642578	1474.537476	30.697680
841.435913	1194.648438	2150.367188	1476.812988	29.523806
841.738220	1201.474976	2123.060791	1488.190552	31.111111
842.040405	1231.056763	2136.714111	1467.710938	26.130653
842.342529	1228.781250	2063.897461	1467.710938	28.610352
842.644592	1194.648438	1995.631714	1440.404663	30.681818
842.946594	1199.199463	1870.478149	1456.333252	38.305073
843.248596	1249.260864	1950.121338	1424.476074	25.000013
843.550598	1162.791138	1795.385864	1483.639526	50.719421
843.852478	1119.556274	1804.488037	1401.720825	41.196011
844.154236	1210.577026	1738.497925	1410.822876	37.931034
844.455994	1178.719727	1740.773438	1363.036987	32.793533
844.757690	1244.709839	1804.488037	1410.822876	29.674795
845.059326	1233.332275	1779.457275	1338.006226	19.166666
845.360962	1137.760376	1765.804199	1385.792114	39.492744
845.662476	1160.515625	1702.089600	1351.659302	35.294102
845.963989	1135.484863	1674.783325	1363.036987	42.194099
846.265381	1237.883301	1661.130127	1328.904175	21.505388
846.566772	1105.903076	1624.721802	1344.832764	46.052635
846.868042	1171.893188	1647.477051	1324.353149	32.057430
847.169373	1128.658325	1690.711914	1349.383789	39.271248
847.470581	1176.444214	1683.885376	1317.526489	27.802687
847.771729	1208.301514	1613.344238	1360.761475	37.640465
848.072815	1194.648438	1665.681274	1301.597900	22.705309
848.373901	1183.270874	1533.701050	1358.485962	50.000000
848.674866	1171.893188	1645.201538	1299.322388	26.923082
848.975891	1165.066650	1683.885376	1306.148926	27.192980
849.276794	1221.954712	1699.814087	1338.006226	24.285704
849.577637	1235.607788	1677.058838	1315.250977	18.041227
849.878357	1151.413574	1506.394775	1256.087524	29.487181
850.179077	1194.648438	1622.446289	1237.883301	10.106377
850.479736	1146.862427	1667.956787	1233.332275	16.593895
850.780396	1190.097412	1599.691162	1267.465088	18.888882
851.080994	1176.444214	1613.344238	1292.495850	26.562515
851.381470	1133.209351	1556.456177	1278.842651	34.408600
851.681946	1080.872437	1633.823975	1322.077637	43.621399
851.982361	1142.311401	1604.242188	1267.465088	27.093601
852.282715	1155.964600	1558.731689	1308.424438	37.853104
852.583008	1192.372925	1563.282837	1303.873413	30.061340
852.883240	1206.026001	1595.140137	1328.904175	31.578955
853.183411	1174.168701	1661.130127	1278.842651	21.495327
853.483521	1208.301514	1510.945801	1317.526489	36.090214
853.783630	1160.515625	1661.130127	1269.740601	21.818180
854.083679	1196.923950	1551.905151	1260.638550	17.948725
854.383667	1187.821899	1570.109375	1378.965576	49.999985
854.683533	1215.128052	1563.282837	1301.597900	24.836611
854.983337	1178.719727	1554.180664	1292.495850	30.303053
855.283203	1171.893188	1604.242188	1240.158813	15.789473
855.582886	1176.444214	1542.803101	1196.923950	5.590075
855.882629	1233.332275	1510.945801	1294.771362	22.131157
856.182312	1169.617676	1531.425537	1290.220337	33.333344
856.481873	1140.035889	1654.303589	1328.904175	36.725674
856.781372	1183.270874	1570.109375	1210.577026	7.058799
857.080872	1178.719727	1551.905151	1281.118164	27.439024
857.380310	1142.311401	1597.415649	1344.832764	44.499992
857.679688	1133.209351	1579.211426	1308.424438	39.285713
857.979004	1144.586914	1515.496826	1340.281738	52.760742
858.278259	1167.342163	1510.945801	1303.873413	39.735100
858.577454	1165.066650	1549.629639	1349.383789	47.928986
858.876648	1183.270874	1522.323364	1374.414551	56.375835
859.175720	1212.852539	1551.905151	1246.985352	10.067114
859.474792	1146.862427	1529.150024	1267.465088	31.547626
859.773743	1235.607788	1608.793213	1347.108276	29.878040
860.072693	1130.933838	1592.864502	1310.699951	38.916256
860.371521	1215.128052	1538.252075	1335.730713	37.323956
860.670349	1162.791138	1567.833862	1262.914063	24.719103
860.969116	1190.097412	1542.803101	1308.424438	33.548374
861.267883	1180.995239	1524.598877	1256.087524	21.854334
861.566589	1231.056763	1588.313477	1249.260864	5.095524
861.865112	1130.933838	1558.731689	1335.730713	47.872349
862.163635	1196.923950	1581.486938	1269.740601	18.934908
862.462158	1144.586914	1565.558350	1315.250977	40.540531
862.760620	1176.444214	1520.047852	1221.954712	13.245057
863.059021	1262.914063	1492.741699	1251.536499	-4.950477
863.357361	1180.995239	1540.527588	1244.709839	17.721521
863.655640	1089.974487	1535.976563	1226.505737	30.612246
863.953857	1158.240112	1545.078613	1221.954712	16.470594
864.251953	1226.505737	1531.425537	1306.148926	26.119389
864.550110	1174.168701	1574.660400	1228.781250	13.636374
864.848206	1194.648438	1574.660400	1212.852539	4.790402
865.146179	1167.342163	1520.047852	1301.597900	38.064522
865.444092	1176.444214	1531.425537	1262.914063	24.358986
865.741943	1278.842651	1576.935913	1228.781250	-16.793873
866.039795	1180.995239	1579.211426	1276.567139	24.000004
866.337646	1233.332275	1581.486938	1290.220337	16.339882
866.635376	1240.158813	1485.915039	1253.812012	5.555586
866.933044	1206.026001	1611.068726	1246.985352	10.112353
867.230652	1212.852539	1479.088501	1269.740601	21.367535
867.528198	1228.781250	1508.670288	1292.495850	22.764235
867.825745	1224.230225	1535.976563	1328.904175	33.576641
868.123230	1233.332275	1588.313477	1340.281738	30.128204
868.420593	1217.403687	1535.976563	1260.638550	13.571420
868.717896	1178.719727	1526.874512	1290.220337	32.026161
869.015198	1121.831787	1504.119263	1274.291626	39.880939
869.312439	1167.342163	1488.190552	1372.139038	63.829796
869.609619	1174.168701	1531.425537	1224.230225	14.012754
869.906738	1174.168701	1426.751587	1322.077637	58.558575
870.203796	1146.862427	1533.701050	1237.883301	23.529417
870.500854	1130.933838	1542.803101	1246.985352	28.176785
870.797791	1126.382813	1499.568237	1276.567139	40.243889
871.094666	1199.199463	1495.017212	1324.353149	42.307701
871.391602	1174.168701	1624.721802	1340.281738	36.868694
871.688293	1212.852539	1531.425537	1326.628662	35.714302
871.985107	1187.821899	1531.425537	1287.944824	29.139076
872.281738	1217.403687	1529.150024	1333.455200	37.226265
872.578369	1228.781250	1490.466064	1199.199463	-11.304358
872.874939	1119.556274	1533.701050	1317.526489	47.802177
873.171509	1158.240112	1481.364014	1235.607788	23.943657
873.467957	1169.617676	1590.588989	1324.353149	36.756775
873.764343	1115.005249	1554.180664	1194.648438	18.134710
874.060669	1178.719727	1558.731689	1287.944824	28.742542
874.356995	1178.719727	1645.201538	1249.260864	15.121948
874.653198	1297.046875	1604.242188	1287.944824	-2.962952
874.949463	1185.546387	1554.180664	1253.812012	18.518524
875.245544	1119.556274	1590.588989	1258.363037	29.468603
875.541626	1137.760376	1515.496826	1297.046875	42.168686
875.837646	1251.536499	1504.119263	1219.679199	-12.612618
876.133606	1165.066650	1510.945801	1256.087524	26.315802
876.429565	1192.372925	1479.088501	1315.250977	42.857124
876.725403	1174.168701	1547.354126	1310.699951	36.585365
877.021179	1169.617676	1517.772339	1319.802124	43.137280
877.316956	1203.750488	1592.864502	1308.424438	26.900585
877.612610	1185.546387	1604.242188	1344.832764	38.043461
877.908203	1121.831787	1570.109375	1290.220337	37.563454
878.203857	1135.484863	1540.527588	1294.771362	39.325851
878.499390	1146.862427	1520.047852	1262.914063	31.097580
878.794800	1153.689087	1563.282837	1226.505737	17.777773
879.090271	1144.586914	1561.007324	1306.148926	38.797813
879.385559	1167.342163	1590.588989	1258.363037	21.505388
879.680847	1142.311401	1622.446289	1256.087524	23.696699
879.976196	1178.719727	1640.650513	1297.046875	25.615774
880.271301	1169.617676	1695.262939	1317.526489	28.138523
880.566467	1178.719727	1786.283813	1369.863525	31.460680
880.861572	1185.546387	1806.763550	1408.547363	35.897427
881.156555	1178.719727	1802.212524	1385.792114	33.211674
881.451477	1160.515625	2179.948975	1524.598877	35.714275
881.746460	1185.546387	2655.532715	1620.170776	29.566561
882.041321	1124.107300	3208.484375	1854.549438	35.043667
882.336121	1231.056763	4000.365479	2052.519775	29.663109
882.630798	1178.719727	4414.510254	2193.602051	31.364277
882.925537	1208.301514	4535.112793	2273.245361	32.010948
883.220215	1226.505737	4314.387207	2173.122314	30.655859
883.514771	1192.372925	3982.161377	2034.315552	30.179441
883.809326	1162.791138	3761.435791	1988.805176	31.786343
884.103760	1253.812012	3538.434814	1943.294800	30.179283
884.398132	1221.954712	3297.229736	1859.100464	30.701752
884.692505	1160.515625	3149.320801	1836.345337	33.981693
884.986816	1262.914063	2892.187012	1756.702026	30.307259
885.281067	1135.484863	2858.054199	1638.375000	29.194189
885.575256	1185.546387	2537.205811	1642.926025	33.838379
885.869385	1242.434326	2368.817139	1529.150024	25.454552
886.163452	1217.403687	2161.744873	1549.629639	35.180714
886.457458	1160.515625	2132.163086	1408.547363	25.526928
886.751465	1244.709839	2036.591064	1356.210449	14.080471
887.045410	1162.791138	1913.713013	1399.445313	31.515152
887.339233	1190.097412	1893.233276	1374.414551	26.213589
887.632996	1130.933838	1743.048950	1331.179688	32.713757
887.926758	1160.515625	1690.711914	1394.894287	44.206017
888.220398	1153.689087	1697.538574	1281.118164	23.430946
888.514099	1212.852539	1658.854614	1287.944824	16.836758
888.807678	1135.484863	1749.875488	1374.414551	38.888889
889.101196	1153.689087	1622.446289	1390.343262	50.485447
889.394653	1146.862427	1636.099487	1347.108276	40.930229
889.688049	1208.301514	1608.793213	1299.322388	22.727282
889.981384	1215.128052	1481.364014	1283.393677	25.641024
890.274719	1217.403687	1561.007324	1256.087524	11.258274
890.567932	1196.923950	1554.180664	1242.434326	12.738844
>>>>>End Processed Spectral Data<<<<<
