Jaz Data File
++++++++++++++++++++++++++++++++++++
Date: Wed Feb 07 06:44:04 2024
User: jaz
Dark Spectrum Present: Yes
Reference Spectrum Present: Yes
Processed Spectrum Present: Yes
Spectrometers: JAZA3692
Integration Time (usec): 40000 (JAZA3692)
Spectra Averaged: 1 (JAZA3692)
Boxcar Smoothing: 0 (JAZA3692)
Correct for Electrical Dark: No (JAZA3692)
Strobe/Lamp Enabled: Yes (JAZA3692)
Correct for Detector Non-linearity: No (JAZA3692)
Correct for Stray Light: No (JAZA3692)
Number of Pixels in Processed Spectrum: 2048
>>>>>Begin Processed Spectral Data<<<<<
W	D	R	S	P
190.244385	0.000000	0.000000	0.000000	0.000000
190.627136	0.000000	0.000000	0.000000	0.000000
191.009842	1083.147949	1133.209351	1096.801025	27.272661
191.392532	1112.729614	1119.556274	1101.352051	-166.663681
191.775177	1108.178589	1076.321289	1087.698975	64.285469
192.157791	1074.045776	1146.862427	1115.005249	56.250145
192.540390	1196.923950	1101.352051	1203.750488	-7.142830
192.922943	1142.311401	1117.280762	1130.933838	45.454544
193.305481	1085.423462	1274.291626	1210.577026	66.265038
193.687958	1201.474976	1078.596802	1137.760376	51.851845
194.070419	1180.995239	1158.240112	1112.729614	300.001068
194.452866	1130.933838	1167.342163	1110.454102	-56.250145
194.835251	1140.035889	1199.199463	1085.423462	-92.307518
195.217621	1155.964600	1133.209351	1149.138062	29.999840
195.599960	1092.250000	1165.066650	1121.831787	40.625031
195.982254	1162.791138	1099.076538	1151.413574	17.857075
196.364517	1101.352051	1133.209351	1201.474976	314.285645
196.746750	1085.423462	1192.372925	1140.035889	51.063770
197.128952	1162.791138	1133.209351	1135.484863	92.307724
197.511139	1165.066650	1110.454102	1149.138062	29.166536
197.893280	1151.413574	1174.168701	1115.005249	-160.000534
198.275391	1110.454102	1140.035889	1071.770264	-130.769104
198.657471	1199.199463	1171.893188	1124.107300	274.999664
199.039520	1146.862427	1137.760376	1092.250000	600.001343
199.421539	1180.995239	1174.168701	1155.964600	366.666656
199.803513	1124.107300	1119.556274	1133.209351	-200.000000
200.185471	1206.026001	1137.760376	1180.995239	36.666714
200.567383	1117.280762	1180.995239	1099.076538	-28.571566
200.949265	1126.382813	1158.240112	1110.454102	-50.000191
201.331131	1165.066650	1208.301514	1094.525513	-163.158005
201.712967	1183.270874	1144.586914	1046.739624	352.940216
202.094742	1124.107300	1169.617676	1162.791138	85.000038
202.476517	1160.515625	1149.138062	1119.556274	360.001068
202.858231	1153.689087	1133.209351	1130.933838	111.111046
203.239944	1165.066650	1149.138062	1135.484863	185.715057
203.621582	1171.893188	1137.760376	1085.423462	253.333145
204.003235	1174.168701	1140.035889	1187.821899	-40.000214
204.384827	1153.689087	1203.750488	1044.463989	-218.182266
204.766388	1174.168701	1092.250000	1064.943726	133.333389
205.147934	1133.209351	1228.781250	1103.627563	-30.952391
205.529449	1060.392700	1231.056763	1108.178589	27.999971
205.910904	1135.484863	1135.484863	1060.392700	0.000000
206.292343	1167.342163	1126.382813	1124.107300	105.555542
206.673767	1169.617676	1149.138062	1101.352051	333.334534
207.055115	1185.546387	1231.056763	1103.627563	-180.000320
207.436462	1112.729614	1162.791138	1165.066650	104.545433
207.817780	1137.760376	1171.893188	1071.770264	-193.333359
208.199051	1126.382813	1158.240112	1044.463989	-257.143036
208.580307	1174.168701	1142.311401	1108.178589	207.142822
208.961517	1112.729614	1115.005249	1101.352051	-499.973175
209.342712	1051.290649	1130.933838	1028.535400	-28.571495
209.723846	1117.280762	1121.831787	1099.076538	-400.002686
210.104965	1160.515625	1151.413574	1117.280762	475.001343
210.486069	1099.076538	1149.138062	1049.015137	-99.999756
210.867111	1140.035889	1162.791138	1128.658325	-49.999733
211.248123	1137.760376	1183.270874	1089.974487	-104.999702
211.629120	1167.342163	1185.546387	1067.219238	-549.998352
212.010071	1121.831787	1217.403687	1180.995239	61.904652
212.390991	1165.066650	1146.862427	1144.586914	112.499916
212.771881	1117.280762	1192.372925	1142.311401	33.333225
213.152756	1110.454102	1167.342163	1058.117188	-91.999817
213.533569	1149.138062	1124.107300	1096.801025	209.090866
213.914368	1142.311401	1108.178589	1105.903076	106.666641
214.295135	1180.995239	1099.076538	1078.596802	125.000076
214.675858	1140.035889	1185.546387	1101.352051	-84.999809
215.056549	1130.933838	1094.525513	1137.760376	-18.749937
215.437225	1119.556274	1115.005249	1067.219238	1150.005371
215.817841	1171.893188	1217.403687	1092.250000	-174.999603
216.198441	1190.097412	1149.138062	1103.627563	211.111374
216.579025	1190.097412	1160.515625	1028.535400	546.153625
216.959549	1158.240112	1196.923950	1144.586914	-35.294323
217.340057	1135.484863	1151.413574	1042.188477	-585.712097
217.720535	1124.107300	1135.484863	1085.423462	-340.001068
218.100967	1144.586914	1194.648438	1087.698975	-113.636055
218.481369	1153.689087	1160.515625	1094.525513	-866.670227
218.861740	1137.760376	1212.852539	1126.382813	-15.151465
219.242065	1094.525513	1199.199463	1133.209351	36.956509
219.622391	1099.076538	1199.199463	1108.178589	9.090876
220.002670	1099.076538	1165.066650	1103.627563	6.896526
220.382919	1089.974487	1251.536499	1124.107300	21.126757
220.763123	1099.076538	1171.893188	1103.627563	6.249979
221.143295	1146.862427	1192.372925	1092.250000	-119.999626
221.523453	1112.729614	1146.862427	1112.729614	0.000000
221.903549	1096.801025	1199.199463	1049.015137	-46.666618
222.283630	1108.178589	1165.066650	1135.484863	48.000008
222.663696	1140.035889	1144.586914	1167.342163	600.002686
223.043701	1169.617676	1224.230225	1128.658325	-74.999886
223.423676	1178.719727	1130.933838	1171.893188	14.285678
223.803635	1135.484863	1092.250000	1099.076538	84.210571
224.183548	1121.831787	1203.750488	1135.484863	16.666616
224.563431	1124.107300	1187.821899	1149.138062	39.285755
224.943283	1215.128052	1265.189575	1208.301514	-13.636297
225.323105	1074.045776	1178.719727	1071.770264	-2.173905
225.702881	1133.209351	1221.954712	1058.117188	-84.615311
226.082642	1080.872437	1140.035889	1046.739624	-57.692394
226.462357	1089.974487	1151.413574	1112.729614	37.036888
226.842041	1103.627563	1153.689087	1126.382813	45.454567
227.221695	1178.719727	1208.301514	1051.290649	-430.768677
227.601318	1096.801025	1212.852539	1130.933838	29.411777
227.980911	1130.933838	1240.158813	1049.015137	-74.999969
228.360474	1083.147949	1171.893188	1092.250000	10.256382
228.739990	1096.801025	1210.577026	1105.903076	7.999974
229.119476	1121.831787	1228.781250	1126.382813	4.255305
229.498932	1069.494751	1240.158813	1146.862427	45.333313
229.878372	1067.219238	1331.179688	1105.903076	14.655165
230.257736	1153.689087	1358.485962	1110.454102	-21.111155
230.637115	1087.698975	1308.424438	1153.689087	29.896919
231.016449	1135.484863	1312.975464	1060.392700	-42.307686
231.395737	1096.801025	1237.883301	1112.729614	11.290283
231.774994	1124.107300	1215.128052	1096.801025	-30.000053
232.154221	1140.035889	1303.873413	1142.311401	1.388884
232.533417	1142.311401	1342.557251	1078.596802	-31.818188
232.912582	1128.658325	1231.056763	1110.454102	-17.777834
233.291702	1151.413574	1306.148926	1089.974487	-39.705914
233.670792	1155.964600	1231.056763	1083.147949	-96.969704
234.049866	1158.240112	1217.403687	1096.801025	-103.846138
234.428894	1096.801025	1144.586914	1042.188477	-114.285934
234.807892	1176.444214	1226.505737	1142.311401	-68.181732
235.186874	1126.382813	1274.291626	1169.617676	29.230755
235.565781	1101.352051	1244.709839	1062.668213	-26.984119
235.944687	1126.382813	1274.291626	1121.831787	-3.076913
236.323547	1146.862427	1303.873413	1074.045776	-46.376785
236.702377	1115.005249	1256.087524	1074.045776	-29.032331
237.081177	1124.107300	1258.363037	1130.933838	5.084727
237.459946	1215.128052	1290.220337	1149.138062	-87.878525
237.838669	1233.332275	1231.056763	1187.821899	2000.005371
238.217361	1206.026001	1274.291626	1158.240112	-69.999931
238.596039	1119.556274	1342.557251	1049.015137	-31.632658
238.974670	1119.556274	1240.158813	1160.515625	33.962261
239.353271	1137.760376	1353.934937	1087.698975	-23.157860
239.731842	1149.138062	1253.812012	1094.525513	-52.173965
240.110367	1155.964600	1376.690063	1076.321289	-36.082520
240.488876	1162.791138	1303.873413	1099.076538	-45.161308
240.867340	1060.392700	1424.476074	1051.290649	-2.499991
241.245789	1146.862427	1356.210449	1155.964600	4.347867
241.624176	1083.147949	1406.271851	1144.586914	19.014057
242.002548	1153.689087	1415.373901	1019.433350	-51.304367
242.380890	1121.831787	1447.231201	1112.729614	-2.797231
242.759186	1046.739624	1542.803101	1206.026001	32.110081
243.137451	1067.219238	1699.814087	1137.760376	11.151077
243.515686	1169.617676	1699.814087	1096.801025	-13.733901
243.893890	1151.413574	1652.028076	1212.852539	12.272710
244.272049	1115.005249	1670.232300	1094.525513	-3.688534
244.650192	1105.903076	1588.313477	1142.311401	7.547168
245.028290	1130.933838	1604.242188	1085.423462	-9.615376
245.406357	1130.933838	1558.731689	1162.791138	7.446812
245.784393	1119.556274	1570.109375	1121.831787	0.505049
246.162384	1206.026001	1570.109375	1133.209351	-19.999992
246.540359	1162.791138	1604.242188	1137.760376	-5.670110
246.918289	1137.760376	1626.997314	1135.484863	-0.465115
247.296204	1196.923950	1770.355225	1201.474976	0.793648
247.674057	1153.689087	2018.386963	1174.168701	2.368413
248.051895	1187.821899	2195.877686	1219.679199	3.160271
248.429703	1226.505737	2168.571289	1153.689087	-7.729467
248.807465	1153.689087	2161.744873	1162.791138	0.902931
249.185196	1155.964600	2045.693237	1180.995239	2.813289
249.562897	1108.178589	1902.335449	1165.066650	7.163328
249.940567	1101.352051	1961.498901	1190.097412	10.317467
250.318192	1160.515625	1781.732788	1137.760376	-3.663010
250.695801	1144.586914	1695.262939	1149.138062	0.826465
251.073349	1096.801025	1647.477051	1089.974487	-1.239665
251.450882	1160.515625	1529.150024	1169.617676	2.469127
251.828400	1167.342163	1556.456177	1231.056763	16.374275
252.205872	1101.352051	1683.885376	1171.893188	12.109374
252.583313	1110.454102	1736.222412	1237.883301	20.363640
252.960693	1158.240112	1654.303589	1155.964600	-0.458714
253.338074	1128.658325	1834.069824	1126.382813	-0.322579
253.715408	1140.035889	1804.488037	1174.168701	5.136986
254.092682	1176.444214	1890.957764	1176.444214	0.000000
254.469955	1185.546387	1695.262939	1219.679199	6.696430
254.847198	1085.423462	1624.721802	1167.342163	15.189867
255.224365	1023.984375	1638.375000	1078.596802	8.888877
255.601563	1101.352051	1629.272949	1146.862427	8.620681
255.978683	1110.454102	1531.425537	1183.270874	17.297319
256.355743	1112.729614	1542.803101	1144.586914	7.407408
256.732819	1146.862427	1556.456177	1165.066650	4.444458
257.109894	1101.352051	1604.242188	1137.760376	7.239817
257.486877	1053.566162	1677.058838	1153.689087	16.058395
257.863831	1099.076538	1690.711914	1160.515625	10.384621
258.240753	1112.729614	1686.160889	1178.719727	11.507937
258.617645	1110.454102	1713.467163	1171.893188	10.188683
258.994507	1101.352051	1770.355225	1158.240112	8.503407
259.371307	1137.760376	1918.264038	1199.199463	7.871723
259.748108	1074.045776	1972.876587	1135.484863	6.835445
260.124878	1117.280762	2102.581299	1199.199463	8.314083
260.501617	1108.178589	2396.123291	1158.240112	3.886931
260.878296	1135.484863	2650.981689	1180.995239	3.003000
261.254944	1117.280762	2644.155273	1283.393677	10.879277
261.631561	1151.413574	2610.022461	1221.954712	4.836193
262.008179	1187.821899	2336.959961	1221.954712	2.970297
262.384735	1142.311401	2182.224365	1174.168701	3.063458
262.761261	1142.311401	1966.049927	1140.035889	-0.276242
263.137695	1151.413574	1970.601074	1171.893188	2.499991
263.514191	1171.893188	2000.182739	1194.648438	2.747258
263.890594	1080.872437	1929.641602	1130.933838	5.898118
264.267029	1121.831787	1877.304688	1201.474976	10.542164
264.643341	1044.463989	1879.580200	1187.821899	17.166224
265.019653	1060.392700	1886.406738	1142.311401	9.917350
265.395935	1103.627563	1854.549438	1171.893188	9.090909
265.772217	1158.240112	1815.865601	1187.821899	4.498272
266.148407	1083.147949	1781.732788	1112.729614	4.234513
266.524597	1096.801025	1959.223389	1162.791138	7.651716
266.900726	1160.515625	1979.703125	1142.311401	-2.222229
267.276855	1190.097412	2072.999512	1165.066650	-2.835055
267.652924	1178.719727	1997.907227	1160.515625	-2.222214
268.028992	1112.729614	2109.407715	1149.138062	3.652980
268.404999	1183.270874	2013.835938	1258.363037	9.041094
268.781006	1124.107300	2200.428711	1215.128052	8.456652
269.156921	1183.270874	2070.723877	1253.812012	7.948718
269.532837	1142.311401	2054.795166	1096.801025	-4.987527
269.908661	1210.577026	2091.203613	1185.546387	-2.842367
270.284546	1092.250000	2050.244141	1149.138062	5.938247
270.660339	1144.586914	2120.785400	1235.607788	9.324013
271.036133	1126.382813	2164.020264	1144.586914	1.754380
271.411835	1146.862427	2132.163086	1185.546387	3.926107
271.787537	1101.352051	2232.285889	1258.363037	13.883305
272.163239	1049.015137	2503.072998	1194.648438	10.015647
272.538849	1174.168701	2655.532715	1219.679199	3.072202
272.914459	1158.240112	2544.032227	1206.026001	3.448272
273.290070	1149.138062	2468.940186	1169.617676	1.551719
273.665588	1101.352051	2245.938965	1196.923950	8.349903
274.041046	1094.525513	2377.919189	1269.740601	13.652482
274.416565	1028.535400	2314.204590	1208.301514	13.982299
274.791962	1051.290649	2270.969727	1237.883301	15.298504
275.167389	1155.964600	2227.734863	1174.168701	1.698508
275.542755	1108.178589	2175.397949	1242.434326	12.579957
275.918060	1121.831787	2241.387939	1265.189575	12.804877
276.293365	1121.831787	2280.071777	1231.056763	9.430254
276.668640	1160.515625	2355.164063	1256.087524	8.000002
277.043854	1099.076538	2277.796387	1190.097412	7.722011
277.419037	1144.586914	2402.949951	1142.311401	-0.180831
277.794189	1206.026001	2380.194824	1167.342163	-3.294572
278.169312	1144.586914	2309.653564	1169.617676	2.148440
278.544373	1167.342163	2264.143311	1226.505737	5.394193
278.919464	1149.138062	2309.653564	1199.199463	4.313721
279.294464	1096.801025	2371.092773	1206.026001	8.571426
279.669464	1153.689087	2332.408936	1226.505737	6.177605
280.044403	1053.566162	2366.541748	1190.097412	10.398613
280.419312	1078.596802	2361.990479	1215.128052	10.638298
280.794189	1110.454102	2277.796387	1194.648438	7.212481
281.169037	1144.586914	2366.541748	1217.403687	5.959040
281.543854	1158.240112	2334.684326	1196.923950	3.288200
281.918671	1135.484863	2471.215576	1297.046875	12.095403
282.293365	1126.382813	2575.889648	1253.812012	8.791210
282.668091	1064.943726	2660.083740	1158.240112	5.848790
283.042786	1124.107300	2883.084961	1274.291626	8.538160
283.417419	1142.311401	2778.410889	1281.118164	8.484005
283.792053	1187.821899	2562.236328	1183.270874	-0.331125
284.166595	1119.556274	2689.665527	1246.985352	8.115937
284.541138	1133.209351	2628.226563	1219.679199	5.783870
284.915619	1096.801025	2614.573486	1262.914063	10.944529
285.290100	1137.760376	2801.166016	1278.842651	8.481532
285.664520	1137.760376	2739.727051	1235.607788	6.107955
286.038940	1105.903076	2789.788574	1231.056763	7.432435
286.413300	1144.586914	2828.472412	1297.046875	9.054057
286.787628	1028.535400	2926.319824	1322.077637	15.467628
287.161896	1174.168701	2953.625977	1258.363037	4.731462
287.536194	1140.035889	3046.922363	1262.914063	6.443917
287.910400	1064.943726	2853.503174	1276.567139	11.832059
288.284607	1121.831787	2730.625000	1278.842651	9.759542
288.658752	1121.831787	2662.359375	1281.118164	10.339729
289.032867	1140.035889	2562.236328	1221.954712	5.760005
289.406921	1080.872437	2678.288086	1256.087524	10.968659
289.781006	1144.586914	2687.390137	1228.781250	5.457231
290.154999	1135.484863	2716.971924	1199.199463	4.028778
290.529022	1151.413574	2844.401123	1269.740601	6.989244
290.902954	1078.596802	2867.156250	1267.465088	10.559799
291.276825	1135.484863	3015.064941	1278.842651	7.627118
291.650757	1137.760376	2990.034424	1297.046875	8.599510
292.024597	1112.729614	2960.452637	1256.087524	7.758626
292.398407	1226.505737	2905.840088	1294.771362	4.065041
292.772156	1137.760376	2769.308838	1274.291626	8.368200
293.145905	1080.872437	2716.971924	1299.322388	13.351874
293.519592	1144.586914	2703.318604	1258.363037	7.299276
293.893280	1119.556274	2830.747803	1306.148926	10.904253
294.266907	1094.525513	2912.666504	1272.016113	9.762202
294.640533	1140.035889	2933.146240	1333.455200	10.786805
295.014069	1137.760376	2990.034424	1290.220337	8.230962
295.387604	1124.107300	3074.228516	1333.455200	10.735123
295.761078	1105.903076	3147.045166	1285.669312	8.807139
296.134552	1101.352051	3213.035400	1251.536499	7.112072
296.507996	1158.240112	3096.983887	1278.842651	6.220654
296.881378	1117.280762	3188.004639	1260.638550	6.923076
297.254730	1169.617676	3235.790527	1274.291626	5.066079
297.628021	1146.862427	3542.985840	1338.006226	7.977210
298.001282	1151.413574	3565.741211	1338.006226	7.728556
298.374573	1185.546387	3442.863037	1399.445313	9.475805
298.747803	1167.342163	3447.414063	1315.250977	6.487024
299.121002	1121.831787	3324.535889	1342.557251	10.020658
299.494141	1135.484863	3285.852051	1278.842651	6.666666
299.867188	1130.933838	3126.565674	1399.445313	13.454961
300.240265	1137.760376	3065.126465	1324.353149	9.681231
300.613312	1076.321289	2944.523926	1258.363037	9.744219
300.986328	1112.729614	3033.269287	1285.669312	9.004745
301.359314	1087.698975	2930.870850	1294.771362	11.234568
301.732239	1126.382813	2803.441650	1256.087524	7.734058
302.105103	1058.117188	2974.105713	1260.638550	10.570072
302.477997	1101.352051	2962.728027	1246.985352	7.823959
302.850830	1128.658325	3044.646729	1310.699951	9.501186
303.223602	1196.923950	2889.911377	1297.046875	5.913979
303.596375	1180.995239	3005.962891	1281.118164	5.486285
303.969116	1094.525513	2883.084961	1224.230225	7.251909
304.341766	1149.138062	2842.125488	1185.546387	2.150537
304.714478	1128.658325	2807.992676	1233.332275	6.233062
305.087067	1135.484863	2732.900391	1226.505737	5.698009
305.459656	1108.178589	2721.522949	1251.536499	8.885760
305.832214	1176.444214	2844.401123	1242.434326	3.956344
306.204681	1103.627563	2801.166016	1269.740601	9.785524
306.577148	1110.454102	2780.686523	1269.740601	9.536786
306.949646	1155.964600	2714.696289	1171.893188	1.021894
307.322021	1124.107300	2789.788574	1231.056763	6.420764
307.694397	1171.893188	2826.196777	1224.230225	3.163690
308.066742	1137.760376	2762.482178	1306.148926	10.364146
308.439026	1130.933838	2939.972900	1233.332275	5.660378
308.811279	1105.903076	3051.473389	1256.087524	7.719302
309.183502	1137.760376	3108.361328	1290.220337	7.736724
309.555695	1180.995239	3058.300049	1287.944824	5.696975
309.927887	1069.494751	3046.922363	1253.812012	9.321062
310.299988	1124.107300	3106.085938	1397.169800	13.777267
310.672058	1158.240112	3144.769775	1258.363037	5.040092
311.044128	1140.035889	3169.800537	1253.812012	5.605385
311.416168	1171.893188	3160.698486	1194.648438	1.144167
311.788147	1174.168701	3231.239502	1283.393677	5.309733
312.160065	1074.045776	3206.208740	1276.567139	9.498399
312.531982	1112.729614	3172.075928	1272.016113	7.734809
312.903870	1196.923950	3010.513916	1201.474976	0.250940
313.275696	1128.658325	2939.972900	1199.199463	3.894472
313.647491	1178.719727	3053.749023	1246.985352	3.640776
314.019318	1105.903076	3005.962891	1215.128052	5.748502
314.391022	1115.005249	2992.309814	1312.975464	10.545450
314.762726	1146.862427	2992.309814	1226.505737	4.315664
315.134369	1010.331238	3188.004639	1235.607788	10.344828
315.505981	1099.076538	3135.667725	1276.567139	8.715082
315.877594	1124.107300	3331.362549	1228.781250	4.742267
316.249146	1155.964600	3167.524902	1342.557251	9.276016
316.620636	1185.546387	3005.962891	1221.954712	2.000000
316.992157	1162.791138	3042.371338	1269.740601	5.690072
317.363586	1165.066650	2933.146240	1262.914063	5.534107
317.735016	1083.147949	2892.187012	1256.087524	9.559748
318.106354	1105.903076	2901.289063	1219.679199	6.337140
318.477722	1151.413574	2894.462402	1212.852539	3.524799
318.849060	1096.801025	2933.146240	1235.607788	7.558860
319.220306	1083.147949	2969.554688	1208.301514	6.634495
319.591522	1083.147949	2994.585449	1301.597900	11.428569
319.962738	1142.311401	3053.749023	1215.128052	3.809523
320.333923	1135.484863	3037.820313	1231.056763	5.023925
320.705017	1144.586914	2937.697266	1176.444214	1.776650
321.076111	1180.995239	3071.953125	1215.128052	1.805054
321.447144	1155.964600	2990.034424	1256.087524	5.459057
321.818176	1146.862427	2873.982666	1253.812012	6.192365
322.189178	1149.138062	2810.268311	1237.883301	5.342461
322.560120	1155.964600	2980.932129	1208.301514	2.867827
322.931030	1092.250000	2930.870850	1203.750488	6.064354
323.301910	1146.862427	3115.187988	1242.434326	4.855493
323.672729	1187.821899	3208.484375	1294.771362	5.292792
324.043549	1101.352051	3288.127441	1249.260864	6.763786
324.414337	1140.035889	3390.525879	1262.914063	5.460063
324.785095	1165.066650	3629.455566	1301.597900	5.540166
325.155792	1110.454102	3597.598389	1258.363037	5.946938
325.526428	1160.515625	3533.883789	1272.016113	4.697985
325.897034	1142.311401	3461.067139	1242.434326	4.317959
326.267670	1124.107300	3483.822266	1201.474976	3.278687
326.638184	1071.770264	3379.148438	1287.944824	9.368839
327.008728	1174.168701	3542.985840	1242.434326	2.881845
327.379211	1153.689087	3527.057129	1253.812012	4.218601
327.749634	1108.178589	3413.281250	1235.607788	5.528136
328.120026	1133.209351	3424.658691	1237.883301	4.568024
328.490417	1151.413574	3404.179199	1215.128052	2.828278
328.860748	1144.586914	3292.678711	1149.138062	0.211869
329.231079	1171.893188	3304.056152	1196.923950	1.173961
329.601318	1130.933838	3356.393066	1142.311401	0.511246
329.971558	1108.178589	3461.067139	1196.923950	3.771762
330.341736	1108.178589	3269.923340	1272.016113	7.578949
330.711914	1103.627563	3374.597412	1180.995239	3.406812
331.082062	1121.831787	3422.383301	1210.577026	3.857564
331.452148	1151.413574	3306.331787	1206.026001	2.534316
331.822174	1126.382813	3326.811523	1258.363037	5.997932
332.192200	1144.586914	3431.485352	1269.740601	5.472639
332.562134	1069.494751	3445.138428	1196.923950	5.363986
332.932129	1149.138062	3602.149414	1281.118164	5.380330
333.302063	1071.770264	3784.191162	1151.413574	2.936244
333.671906	1092.250000	3665.864014	1221.954712	5.039789
334.041718	1096.801025	3645.384277	1237.883301	5.535714
334.411499	1078.596802	3891.140625	1258.363037	6.391589
334.781281	1105.903076	3772.813477	1231.056763	4.692834
335.151001	1237.883301	3772.813477	1276.567139	1.526032
335.520721	1167.342163	3695.445801	1262.914063	3.780379
335.890350	1169.617676	3618.078125	1287.944824	4.832716
336.259979	1160.515625	3800.119629	1256.087524	3.620691
336.629547	1196.923950	3845.630127	1278.842651	3.092782
336.999084	1108.178589	3713.649902	1233.332275	4.803495
337.368622	1019.433350	3697.721191	1244.709839	8.411213
337.738098	1067.219238	3863.834229	1272.016113	7.323027
338.107513	1067.219238	3756.884766	1274.291626	7.698815
338.476898	1099.076538	3729.578613	1240.158813	5.363321
338.846252	1151.413574	3825.150391	1303.873413	5.702126
339.215576	1171.893188	3809.221924	1331.179688	6.039691
339.584869	1096.801025	3884.313965	1192.372925	3.428572
339.954132	1201.474976	3763.711426	1210.577026	0.355239
340.323334	1115.005249	3574.843262	1206.026001	3.700274
340.692505	1087.698975	3656.761963	1274.291626	7.263062
341.061646	1103.627563	3643.108887	1185.546387	3.225809
341.430786	1192.372925	3684.068115	1208.301514	0.639267
341.799896	1212.852539	3711.374512	1260.638550	1.912571
342.168915	1180.995239	3788.742188	1260.638550	3.054104
342.537903	1153.689087	3882.038574	1212.852539	2.168470
342.906830	1119.556274	3852.456787	1278.842651	5.828474
343.275757	1201.474976	3991.263428	1224.230225	0.815662
343.644684	1153.689087	4032.222900	1199.199463	1.581026
344.013550	1126.382813	4070.906738	1208.301514	2.782069
344.382355	1180.995239	4109.590332	1244.709839	2.175603
344.751129	1103.627563	4282.530273	1303.873413	6.299212
345.119873	1126.382813	4548.766113	1306.148926	5.252659
345.488586	1112.729614	4639.787109	1333.455200	6.258066
345.857269	1151.413574	4785.420410	1308.424438	4.320599
346.225891	1165.066650	4805.899902	1297.046875	3.625000
346.594482	1110.454102	4801.349121	1310.699951	5.425401
346.963043	1158.240112	4956.084473	1335.730713	4.673457
347.331543	1153.689087	4637.511230	1287.944824	3.853691
347.700043	1105.903076	4505.531250	1194.648438	2.610443
348.068512	1067.219238	4296.183105	1249.260864	5.637772
348.436951	1151.413574	4369.000000	1265.189575	3.536067
348.805328	1069.494751	4309.836426	1258.363037	5.828653
349.173645	1160.515625	4132.345703	1281.118164	4.058191
349.541931	1119.556274	4252.948242	1310.699951	6.100216
349.910217	1083.147949	4328.040527	1246.985352	5.049086
350.278473	1169.617676	4505.531250	1294.771362	3.751707
350.646667	1055.841675	4639.787109	1242.434326	5.206347
351.014801	1140.035889	4500.979980	1340.281738	5.958024
351.382935	1140.035889	4480.500488	1212.852539	2.179836
351.751007	1076.321289	4694.399414	1224.230225	4.088053
352.119049	1149.138062	4660.266602	1274.291626	3.564483
352.487091	1183.270874	4637.511230	1285.669312	2.964427
352.855072	1130.933838	4644.337891	1283.393677	4.339377
353.222992	1144.586914	4635.235840	1272.016113	3.650588
353.590881	1219.679199	4867.338867	1388.067749	4.616345
353.958740	1196.923950	4876.440918	1272.016113	2.040816
354.326599	1053.566162	5179.085449	1253.812012	4.853834
354.694397	1137.760376	5038.002930	1340.281738	5.192533
355.062134	1201.474976	5242.799805	1287.944824	2.139641
355.429840	1119.556274	5386.157715	1269.740601	3.519999
355.797516	1105.903076	5481.729492	1303.873413	4.524182
356.165192	1117.280762	5618.260742	1372.139038	5.662284
356.532776	1171.893188	5577.301270	1269.740601	2.221075
356.900360	1155.964600	5747.965332	1394.894287	5.203172
357.267883	1058.117188	5904.976563	1363.036987	6.291080
357.635376	1105.903076	6355.529785	1465.435425	6.848722
358.002808	1124.107300	6505.713867	1424.476074	5.581396
358.370270	1165.066650	6856.144043	1399.445313	4.118353
358.737640	1130.933838	6931.236328	1340.281738	3.609258
359.105011	1128.658325	6621.765625	1403.996338	5.012427
359.472321	1174.168701	6403.315430	1342.557251	3.220192
359.839569	1103.627563	6321.396973	1435.853638	6.367205
360.206787	1137.760376	6141.630859	1378.965576	4.820373
360.574005	1126.382813	6569.428711	1429.027100	5.560201
360.941193	1069.494751	6696.857910	1449.506714	6.752931
361.308319	1126.382813	7170.166016	1403.996338	4.593373
361.675415	1087.698975	7645.750000	1401.720825	4.788341
362.042450	1126.382813	8282.895508	1419.924927	4.101748
362.409424	1155.964600	8585.540039	1469.986450	4.226646
362.776428	1117.280762	9004.235352	1510.945801	4.991344
363.143402	1101.352051	8510.448242	1465.435425	4.914005
363.510284	1162.791138	7948.394043	1469.986450	4.527163
363.877136	1199.199463	7154.237305	1419.924927	3.706533
364.243988	1064.943726	6639.969727	1467.710938	7.224491
364.610779	1144.586914	6446.550293	1342.557251	3.733906
364.977539	1165.066650	6271.335449	1351.659302	3.654188
365.344269	1117.280762	6178.039063	1347.108276	4.541365
365.710938	1169.617676	6116.600098	1415.373901	4.967801
366.077576	1105.903076	5875.394531	1433.578125	6.870231
366.444183	1108.178589	5916.354004	1351.659302	5.063890
366.810760	1142.311401	5884.496582	1312.975464	3.598849
367.177277	1158.240112	5914.078613	1351.659302	4.066984
367.543823	1094.525513	6048.334473	1342.557251	5.006889
367.910248	1155.964600	5859.465820	1419.924927	5.611997
368.276642	1112.729614	5900.425293	1356.210449	5.085554
368.643036	1112.729614	5893.598633	1342.557251	4.807235
369.009399	1115.005249	5829.884277	1335.730713	4.681466
369.375671	1062.668213	5645.566895	1319.802124	5.610727
369.741974	1030.810913	5677.424316	1413.098389	8.227228
370.108215	1126.382813	5750.241211	1392.618774	5.757874
370.474396	1144.586914	5718.383789	1415.373901	5.920398
370.840546	1178.719727	5736.587891	1326.628662	3.245134
371.206665	1137.760376	5977.792969	1410.822876	5.641749
371.572784	1099.076538	5930.007324	1392.618774	6.076308
371.938843	1094.525513	6082.467285	1449.506714	7.116787
372.304840	1130.933838	6150.732910	1358.485962	4.533092
372.670807	1105.903076	6316.845703	1385.792114	5.371179
373.036713	1124.107300	5984.619629	1369.863525	5.056180
373.402649	1130.933838	5998.272949	1372.139038	4.955587
373.768524	1087.698975	6034.681152	1469.986450	7.727690
374.134308	1119.556274	6153.008301	1408.547363	5.741409
374.500122	1169.617676	6082.467285	1390.343262	4.492822
374.865875	1151.413574	6137.079590	1429.027100	5.568233
375.231567	1087.698975	6248.580078	1390.343262	5.864198
375.597260	1185.546387	6423.795410	1383.516602	3.779320
375.962891	1110.454102	6514.815918	1415.373901	5.642106
376.328461	1115.005249	6658.173828	1469.986450	6.403940
376.694031	1089.974487	6690.031250	1426.751587	6.013816
377.059540	1142.311401	7192.921387	1535.976563	6.506207
377.425049	1112.729614	7406.820313	1510.945801	6.326826
377.790497	1126.382813	7638.923340	1517.772339	6.009783
378.155945	1196.923950	7868.750977	1490.466064	4.399726
378.521301	1119.556274	7943.843262	1520.047852	5.868621
378.886597	1178.719727	7550.178223	1488.190552	4.857142
379.251892	1153.689087	7176.992676	1542.803101	6.460143
379.617157	1094.525513	7026.808105	1485.915039	6.597621
379.982422	1121.831787	6994.951172	1520.047852	6.780316
380.347595	1108.178589	6865.246094	1504.119263	6.877471
380.712738	1121.831787	6776.500977	1438.129150	5.593561
381.077820	1062.668213	6910.756836	1510.945801	7.665369
381.442902	1142.311401	6808.358398	1558.731689	7.349397
381.807953	1062.668213	6783.327637	1479.088501	7.279236
382.172974	1062.668213	6655.898438	1626.997314	10.089502
382.537933	1110.454102	6660.449219	1556.456177	8.036080
382.902832	1149.138062	6796.980469	1545.078613	7.010475
383.267700	1146.862427	7033.634766	1545.078613	6.764593
383.632538	1142.311401	7031.359375	1549.629639	6.916538
383.997345	1187.821899	7206.574219	1601.966675	6.880907
384.362152	1112.729614	7377.238281	1617.895264	8.063931
384.726898	1151.413574	7545.626953	1665.681274	8.042705
385.091553	1076.321289	7393.166992	1626.997314	8.717579
385.456238	1085.423462	7361.309570	1638.375000	8.810732
385.820862	1076.321289	7525.147461	1652.028076	8.927311
386.185425	1130.933838	7632.096680	1633.823975	7.735387
386.549988	1124.107300	7477.361328	1579.211426	7.163323
386.914490	1126.382813	7823.240723	1688.436401	8.392796
387.278961	1067.219238	7950.669922	1692.987427	9.090908
387.643372	1042.188477	7937.016602	1752.151001	10.297030
388.007782	1146.862427	7880.128418	1679.334351	7.908078
388.372101	1146.862427	7998.455566	1713.467163	8.269678
388.736450	1151.413574	7966.598145	1706.640625	8.146912
389.100739	1103.627563	8073.547852	1690.711914	8.423114
389.464966	1096.801025	7802.760742	1718.018188	9.263658
389.829163	1112.729614	7702.637695	1697.538574	8.874311
390.193329	1110.454102	7789.107910	1809.039063	10.459967
390.557495	1196.923950	7748.148438	1761.253052	8.614101
390.921570	1171.893188	7971.149414	1799.937012	9.236949
391.285614	1140.035889	8282.895508	1870.478149	10.226189
391.649597	1183.270874	8571.886719	1868.202637	9.270096
392.013550	1083.147949	8833.571289	1979.703125	11.567822
392.377502	1089.974487	9184.001953	1979.703125	10.992410
392.741455	1135.484863	9300.053711	1995.631714	10.535116
393.105316	1194.648438	9181.726563	2052.519775	10.740741
393.469086	1103.627563	8849.500000	2075.274902	12.544065
393.832886	1119.556274	8744.826172	2029.764526	11.936735
394.196655	1089.974487	9022.440430	2007.009399	11.560528
394.560333	1146.862427	9170.348633	2070.723877	11.514464
394.924042	1160.515625	9249.992188	2136.714111	12.067512
395.287659	1167.342163	9145.318359	1993.356201	10.353679
395.651245	1117.280762	9170.348633	2111.683350	12.348122
396.014771	1105.903076	8908.664063	2079.825928	12.481772
396.378296	1153.689087	8403.498047	2132.163086	13.496549
396.741791	1108.178589	8462.662109	2022.937988	12.438119
397.105255	1153.689087	8385.293945	2057.070801	12.492133
397.468628	1176.444214	8123.609375	2054.795166	12.643300
397.832001	1140.035889	8068.996582	2082.101563	13.596060
398.195313	1162.791138	8207.803711	2086.652588	13.113694
398.558624	1146.862427	8214.629883	2091.203613	13.361238
398.921844	1196.923950	8175.946289	2116.234375	13.172482
399.285095	1060.392700	8335.232422	2088.927979	14.138253
399.648254	1119.556274	8255.589844	2129.887451	14.158161
400.011383	1119.556274	8567.335938	2134.438477	13.626641
400.374451	1130.933838	8291.998047	2125.336426	13.886240
400.737549	1146.862427	8460.386719	2123.060791	13.347852
401.100586	1140.035889	8235.109375	2236.836914	15.458629
401.463562	1135.484863	8276.069336	2152.642578	14.244740
401.826508	1060.392700	8449.008789	2264.143311	16.291964
402.189392	1062.668213	8337.507813	2186.775391	15.451985
402.552246	1083.147949	8364.814453	2298.276123	16.687502
402.915070	1092.250000	8467.212891	2307.378174	16.476397
403.277893	1078.596802	8578.713867	2307.378174	16.383495
403.640656	1187.821899	8749.377930	2355.164063	15.437856
404.003326	1169.617676	9129.389648	2521.277100	16.981133
404.366028	1192.372925	9172.624023	2441.633789	15.654406
404.728699	1178.719727	9493.472656	2437.082764	15.134100
405.091248	1121.831787	9937.199219	2582.716064	16.572018
405.453857	1153.689087	9730.126953	2516.726074	15.892811
405.816345	1099.076538	9620.902344	2528.103516	16.769022
406.178833	1212.852539	9739.229492	2573.614014	15.959434
406.541260	1160.515625	9839.351563	2557.685303	16.098583
406.903687	1155.964600	9381.972656	2487.144287	16.182573
407.266052	1162.791138	9070.225586	2578.165039	17.899281
407.628387	1194.648438	9286.400391	2516.726074	16.338583
407.990662	1221.954712	8986.031250	2489.419678	16.324736
408.352905	1217.403687	9272.747070	2653.257324	17.824860
408.715118	1053.566162	9149.869141	2605.471436	19.168074
409.077332	1092.250000	8842.673828	2635.052979	19.906046
409.439484	1133.209351	8972.378906	2730.625000	20.377357
409.801575	1119.556274	9224.960938	2664.634766	19.062325
410.163605	1096.801025	9227.237305	2644.155273	19.031626
410.525635	1112.729614	9541.258789	2821.645752	20.275377
410.887604	1162.791138	9645.932617	2787.512939	19.152359
411.249573	1144.586914	9900.791016	2835.298828	19.308731
411.611481	1178.719727	9887.137695	2830.747803	18.970472
411.973328	1130.933838	9789.290039	2701.043213	18.134035
412.335144	1112.729614	9570.840820	2787.512939	19.800913
412.696930	1144.586914	9413.829102	2710.145264	18.932308
413.058685	1121.831787	9293.226563	2737.451416	19.771650
413.420410	1121.831787	9454.789063	2630.501953	18.104860
413.782104	1092.250000	9689.167969	2757.931152	19.375330
414.143707	1112.729614	9714.198242	2737.451416	18.888887
414.505310	1110.454102	9545.809570	2817.094727	20.231995
414.866852	1128.658325	9741.504883	2691.941162	18.150595
415.228394	1105.903076	9884.862305	2848.952148	19.854849
415.589874	1089.974487	10087.383789	2903.564453	20.156801
415.951324	1053.566162	10217.088867	2830.747803	19.394089
416.312683	1112.729614	10485.599609	2821.645752	18.232580
416.674072	1169.617676	10665.366211	2871.707275	17.924755
417.035370	1126.382813	10874.713867	2953.625977	18.744164
417.396667	1119.556274	11218.317383	3003.687500	18.657053
417.757935	1130.933838	11238.796875	2960.452637	18.099957
418.119141	1101.352051	11985.167969	3099.259277	18.356678
418.480286	1076.321289	11823.606445	3172.075928	19.500317
418.841400	1067.219238	12524.466797	3281.301025	19.324726
419.202484	1133.209351	12924.958008	3340.464600	18.718643
419.563568	1185.546387	13480.185547	3326.811523	17.416250
419.924591	1128.658325	14449.556641	3620.353516	18.705160
420.285553	1099.076538	14301.648438	3631.731201	19.183041
420.646484	1092.250000	15484.918945	3795.568604	18.782608
421.007355	1146.862427	15382.520508	3922.997803	19.501278
421.368225	1178.719727	16292.728516	4182.407227	19.873533
421.729065	1089.974487	16750.109375	4221.091309	19.994188
422.089874	1201.474976	17412.285156	4482.775879	20.241436
422.450592	1140.035889	17196.111328	4353.071289	20.011337
422.811279	1080.872437	17405.458984	4357.622559	20.072483
423.171936	1151.413574	17275.753906	4425.888184	20.307652
423.532593	1183.270874	16624.955078	4389.479492	20.763334
423.893127	1140.035889	16688.669922	4255.224121	20.035126
424.253723	1130.933838	17018.619141	4487.327148	21.125753
424.614197	1108.178589	17473.724609	4626.133789	21.496105
424.974670	1165.066650	17630.734375	4660.266602	21.227198
425.335052	1153.689087	18044.880859	4671.644043	20.827158
425.695496	1190.097412	17389.529297	4494.153809	20.396126
426.055817	1105.903076	17289.406250	4425.888184	20.514626
426.416168	1119.556274	17107.365234	4680.746094	22.274410
426.776398	1096.801025	16144.820313	4321.213867	21.427490
427.136627	1169.617676	15564.562500	4339.417969	22.020231
427.496826	1169.617676	15746.603516	4330.315918	21.682796
427.856995	1087.698975	14906.936523	4200.611328	22.525934
428.217102	1083.147949	14383.567383	4036.773926	22.207012
428.577179	1069.494751	14217.454102	4000.365479	22.291449
428.937195	1128.658325	13912.534180	3984.437012	22.338913
429.297180	1133.209351	13407.368164	4000.365479	23.359289
429.657135	1174.168701	13514.318359	3879.762939	21.925133
430.017059	1078.596802	13682.707031	3850.181152	21.989529
430.376984	1101.352051	13314.072266	3797.844238	22.079372
430.736786	1071.770264	13209.398438	3861.558838	22.984627
431.096588	1126.382813	13241.255859	3693.170166	21.187077
431.456360	1074.045776	13006.876953	3886.589600	23.569796
431.816071	1087.698975	12783.875977	3759.160400	22.840467
432.175781	1074.045776	12902.203125	3709.098877	22.277800
432.535400	1080.872437	12990.948242	3693.170166	21.933512
432.895020	1112.729614	12936.335938	3740.956299	22.228638
433.254578	1044.463989	13093.346680	3925.273438	23.909349
433.614105	1110.454102	13425.572266	3975.334961	23.263121
433.973602	1044.463989	13509.766602	4150.549805	24.917854
434.333038	1155.964600	13691.808594	4180.131836	24.124163
434.692444	1128.658325	13616.716797	4045.875977	23.360058
435.051819	1140.035889	13898.880859	4211.988770	24.077045
435.411133	1192.372925	13944.391602	4348.520020	24.750175
435.770416	1110.454102	13350.480469	4061.804688	24.112289
436.129669	1124.107300	13969.421875	4196.060547	23.914970
436.488861	1135.484863	13484.736328	4334.867188	25.907499
436.848083	1133.209351	13646.297852	4366.724609	25.841063
437.207184	1117.280762	13596.236328	4416.785645	26.440554
437.566254	1187.821899	13853.371094	4396.306152	25.332375
437.925293	1126.382813	13657.675781	4439.541016	26.439077
438.284363	1115.005249	13973.973633	4576.072266	26.915586
438.643311	1133.209351	14492.791992	4751.287598	27.082268
439.002258	1135.484863	14281.168945	4755.838379	27.540245
439.361145	1105.903076	14781.783203	4940.155762	28.036608
439.719971	1206.026001	15175.448242	5142.677246	28.180489
440.078827	1158.240112	15389.347656	5224.595703	28.573711
440.437592	1080.872437	15748.879883	5438.494629	29.708344
440.796295	1149.138062	16128.891602	5604.607910	29.743277
441.155029	1142.311401	17102.814453	5950.486816	30.125462
441.513672	1135.484863	17316.712891	5964.140137	29.841091
441.872253	1140.035889	17334.917969	5907.251953	29.436558
442.230865	1096.801025	16832.027344	5829.884277	30.079535
442.589386	1108.178589	16706.873047	6057.436523	31.728666
442.947876	1110.454102	16538.484375	5818.506836	30.516228
443.306335	1140.035889	16351.892578	5697.904297	29.962603
443.664764	1135.484863	15744.328125	5581.852539	30.436136
444.023102	1049.015137	16097.034180	5827.608887	31.755632
444.381500	1126.382813	15839.900391	5561.373047	30.142284
444.739777	1130.933838	15753.430664	5681.975586	31.123562
445.098022	1219.679199	16338.239258	5861.741699	30.704395
445.456238	1058.117188	15953.676758	5875.394531	32.340359
445.814423	1071.770264	16838.853516	6096.120117	31.866070
446.172577	1083.147949	17676.246094	6223.549316	30.979155
446.530701	1117.280762	17218.865234	6332.774414	32.391182
446.888733	1126.382813	18304.289063	6539.846680	31.514107
447.246765	1126.382813	19330.548828	6778.776367	31.049999
447.604736	1124.107300	18791.250000	6676.377930	31.427099
447.962677	1149.138062	18261.054688	6733.266113	32.632980
448.320587	1117.280762	19093.894531	6812.909180	31.683546
448.678436	1155.964600	18702.505859	6699.133301	31.591234
449.036255	1165.066650	18295.187500	6646.796387	32.000530
449.394043	1174.168701	17405.458984	6273.610840	31.417356
449.751770	1101.352051	17708.103516	6398.764648	31.899149
450.109467	1124.107300	16925.324219	6180.314453	31.998846
450.467163	1085.423462	16579.445313	6319.121094	33.778820
450.824768	1119.556274	16768.312500	6239.478027	32.717758
451.182343	1096.801025	16322.310547	6046.058594	32.506351
451.539886	1110.454102	15705.644531	5804.853516	32.164017
451.897369	1135.484863	16044.697266	6039.232422	32.890720
452.254822	1051.290649	15698.818359	5889.047852	33.027809
452.612274	1155.964600	16320.035156	6043.783203	32.232891
452.969635	1119.556274	16258.595703	5968.690918	32.030663
453.326965	1215.128052	16156.197266	5964.140137	31.784956
453.684326	1092.250000	15842.175781	5716.108398	31.348351
454.041534	1078.596802	15482.643555	5727.485840	32.274883
454.398773	1206.026001	15350.663086	5618.260742	31.193695
454.755951	1174.168701	14977.477539	5379.331055	30.464886
455.113098	1124.107300	14426.801758	5518.138184	33.031136
455.470215	1110.454102	14599.741211	5518.138184	32.675442
455.827240	1210.577026	14704.415039	5484.005371	31.669479
456.184265	1151.413574	14360.811523	5247.351074	31.007751
456.541260	1155.964600	14383.567383	5397.535156	32.066055
456.898193	1140.035889	14174.218750	5251.901855	31.546789
457.255096	1137.760376	14627.047852	5286.034668	30.752361
457.611969	1030.810913	14586.087891	5383.882324	32.113480
457.968781	1010.331238	14422.250977	5290.585938	31.913813
458.325531	1117.280762	14815.916016	5304.238770	30.564783
458.682312	1178.719727	15280.122070	5609.158691	31.418428
459.039001	1101.352051	16046.972656	5809.404785	31.501219
459.395630	1121.831787	16979.935547	6121.150879	31.525330
459.752289	1058.117188	18183.687500	6439.723633	31.424393
460.108856	1140.035889	19601.335938	6658.173828	29.890297
460.465363	1149.138062	20286.267578	6992.675293	30.535078
460.821899	1094.525513	20215.726563	7088.247070	31.345947
461.178345	1137.760376	19564.927734	6958.542480	31.588045
461.534760	1076.321289	19266.833984	6746.918945	31.173382
461.891144	1142.311401	18413.513672	6539.846680	31.251646
462.247467	1117.280762	17739.960938	6259.957520	30.937712
462.603760	1044.463989	17316.712891	6125.702148	31.226404
462.960052	1162.791138	16251.769531	5827.608887	30.915400
463.316254	1135.484863	16065.176758	5641.016113	30.178328
463.672424	1089.974487	15589.592773	5638.740723	31.371628
464.028564	1119.556274	15459.888672	5440.770020	30.133289
464.384644	1126.382813	14977.477539	5515.862305	31.690487
464.740723	1135.484863	15230.060547	5499.933594	30.965448
465.096741	1174.168701	15250.540039	5383.882324	29.906244
465.452698	1199.199463	15209.581055	5222.320313	28.715284
465.808655	1212.852539	15277.846680	5372.504395	29.574501
466.164520	1119.556274	15100.356445	5422.565918	30.777994
466.520355	1178.719727	15732.951172	5506.760254	29.737335
466.876190	1074.045776	15942.298828	5711.557129	31.190693
467.231964	1105.903076	15917.267578	5506.760254	29.712708
467.587677	1190.097412	16574.892578	5670.597656	29.122910
467.943390	1112.729614	16572.617188	5677.424316	29.526054
468.299011	1162.791138	16185.779297	5697.904297	30.187824
468.654633	1080.872437	15965.053711	5392.984375	28.971104
469.010223	1187.821899	16081.105469	5563.648438	29.381208
469.365723	1165.066650	15314.254883	5286.034668	29.125118
469.721191	1133.209351	15830.797852	5402.086426	29.044743
470.076660	1144.586914	14843.222656	5249.626465	29.966776
470.432068	1137.760376	15318.805664	5242.799805	28.947371
470.787445	1117.280762	15182.274414	5192.738281	28.975891
471.142792	1115.005249	15032.090820	5081.237793	28.499016
471.498016	1144.586914	15257.367188	5333.820801	29.683973
471.853271	1008.055725	15189.101563	5085.789063	28.754814
472.208496	1128.658325	15414.377930	5217.769043	28.623764
472.563660	1153.689087	15480.368164	5208.666992	28.303684
472.918762	1130.933838	15928.645508	5367.953613	28.632936
473.273865	1096.801025	16133.442383	5404.361816	28.647093
473.628876	1133.209351	16499.800781	5447.596680	28.076408
473.983917	1103.627563	16643.158203	5477.178711	28.144682
474.338837	1153.689087	16467.943359	5509.035645	28.439823
474.693787	1158.240112	16440.638672	5317.892090	27.218580
475.048645	1135.484863	16244.943359	5372.504395	28.042166
475.403503	1112.729614	16406.505859	5493.107422	28.641571
475.758270	1133.209351	16481.597656	5422.565918	27.946625
476.113037	1153.689087	16743.281250	5406.637207	27.280691
476.467773	1049.015137	17027.722656	5602.332031	28.496153
476.822418	1119.556274	17771.818359	5672.873535	27.343536
477.177063	1146.862427	17662.591797	5372.504395	25.585564
477.531647	1105.903076	18051.707031	5627.362793	26.681885
477.886200	1140.035889	18552.320313	5857.190430	27.090954
478.240723	1046.739624	19114.375000	5820.782227	26.423174
478.595184	1080.872437	18973.292969	5857.190430	26.694645
478.949585	1135.484863	19184.916016	5879.945801	26.285931
479.303986	1103.627563	19444.326172	6036.956543	26.898260
479.658325	1087.698975	19721.939453	6123.426270	27.024055
480.012634	1146.862427	19817.509766	5945.936035	25.703844
480.366913	1112.729614	20602.564453	6112.048828	25.650908
480.721130	1112.729614	20955.271484	6143.906250	25.355507
481.075317	1121.831787	21526.427734	6294.090332	25.348499
481.429474	1183.270874	22686.943359	6478.407715	24.624338
481.783569	1080.872437	23638.109375	6678.653320	24.815899
482.137604	1149.138062	24778.146484	6935.787598	24.489599
482.491669	1158.240112	26744.195313	7484.187988	24.724298
482.845612	1178.719727	29599.974609	8253.313477	24.891912
483.199554	1094.525513	33504.769531	9013.337891	24.433054
483.553436	1146.862427	39443.878906	10296.731445	23.891859
483.907318	1046.739624	45528.621094	12142.178711	24.943727
484.261139	1083.147949	52525.847656	13960.320313	25.032068
484.614899	1165.066650	54785.437500	14431.352539	24.741131
484.968628	1144.586914	54698.968750	14563.333008	25.056299
485.322357	1140.035889	52578.183594	13689.533203	24.397257
485.675964	1117.280762	48894.117188	12583.629883	23.999809
486.029572	1149.138062	45144.058594	11398.083984	23.295748
486.383148	1142.311401	41869.582031	10770.040039	23.639513
486.736694	1126.382813	39482.562500	10162.475586	23.558374
487.090149	1094.525513	39216.324219	9978.159180	23.303293
487.443604	1155.964600	40570.261719	9980.434570	22.389008
487.796997	1128.658325	42154.023438	10524.284180	22.901993
488.150360	1137.760376	43749.164063	10927.050781	22.973406
488.503693	1074.045776	44529.667969	10956.632813	22.741793
488.856964	1151.413574	43603.531250	10704.049805	22.502144
489.210175	1158.240112	41703.468750	10189.782227	22.275227
489.563416	1180.995239	39086.621094	9486.646484	21.911396
489.916565	1119.556274	36440.191406	8986.031250	22.271612
490.269653	1151.413574	34512.824219	8408.049805	21.751587
490.622772	1144.586914	33174.816406	8173.670898	21.945156
490.975769	1112.729614	33325.003906	8014.384277	21.425545
491.328735	1137.760376	34594.742188	8160.017578	20.988914
491.681732	1153.689087	36667.742188	8371.640625	20.324211
492.034607	1194.648438	39036.558594	9165.797852	21.064342
492.387482	1124.107300	39782.929688	9038.368164	20.472069
492.740326	1137.760376	39100.273438	9029.266602	20.787630
493.093079	1187.821899	36749.660156	8530.927734	20.648836
493.445862	1115.005249	33957.597656	7832.342773	20.453127
493.798523	1071.770264	31388.533203	7167.890625	20.108084
494.151215	1119.556274	29106.187500	6847.041992	20.465078
494.503815	1087.698975	26964.921875	6325.947754	20.242702
494.856384	1142.311401	25442.597656	5930.007324	19.702219
495.208923	1187.821899	24259.328125	5615.985352	19.193214
495.561432	1178.719727	23515.232422	5440.770020	19.081091
495.913879	1165.066650	23048.750000	5306.514648	18.924822
496.266296	1235.607788	23487.925781	5404.361816	18.734020
496.618683	1251.536499	23324.087891	5331.545410	18.484537
496.970978	1151.413574	24104.591797	5292.861328	18.043026
497.323273	1153.689087	24425.439453	5333.820801	17.962257
497.675507	1140.035889	24709.880859	5406.637207	18.101950
498.027710	1192.372925	24316.214844	5333.820801	17.909861
498.379852	1187.821899	24245.673828	5188.187500	17.349257
498.731995	1080.872437	23920.275391	5281.483887	18.391949
499.084076	1101.352051	23738.232422	5119.921875	17.752312
499.436096	1094.525513	23080.607422	5160.881348	18.495136
499.788086	1135.484863	22759.759766	4906.022949	17.436598
500.140106	1144.586914	22413.880859	4837.757324	17.363861
500.491943	1137.760376	21546.906250	4751.287598	17.705431
500.843842	1160.515625	21649.304688	4815.001953	17.836517
501.195679	1128.658325	21137.312500	4701.226074	17.855114
501.547455	1183.270874	20657.177734	4453.194336	16.791307
501.899231	1158.240112	20632.146484	4341.693848	16.347279
502.250885	1080.872437	20236.207031	4262.050293	16.607269
502.602600	1121.831787	20402.320313	4271.152344	16.334236
502.954193	1187.821899	20495.615234	4271.152344	15.969357
503.305786	1124.107300	19992.726563	4255.224121	16.594307
503.657379	1124.107300	20693.585938	4273.428223	16.093023
504.008820	1155.964600	20154.287109	4234.744141	16.205534
504.360291	1133.209351	20770.953125	4216.540039	15.701042
504.711700	1165.066650	20529.748047	4164.203125	15.487662
505.063080	1110.454102	20634.421875	4216.540039	15.909091
505.414368	1078.596802	20566.156250	4157.376465	15.798695
505.765656	1101.352051	20588.912109	4098.212891	15.378327
506.116943	1064.943726	20748.199219	4093.661865	15.387283
506.468109	1115.005249	20340.880859	4059.529053	15.315422
506.819305	1146.862427	20552.503906	4018.569824	14.798313
507.170410	1023.984375	20450.105469	3954.855225	15.087268
507.521484	1158.240112	20181.593750	3920.722412	14.521532
507.872559	1119.556274	20670.830078	4000.365479	14.734636
508.223480	1146.862427	20948.445313	3929.824463	14.054240
508.574493	1126.382813	20786.882813	3909.344727	14.155092
508.925385	1142.311401	21239.710938	3945.753174	13.949276
509.276245	1124.107300	21319.353516	3897.967041	13.735212
509.627045	1076.321289	21694.814453	4041.324951	14.380313
509.977814	1142.311401	21838.173828	3982.161377	13.721825
510.328613	1203.750488	22147.644531	4075.457764	13.711430
510.679260	1067.219238	22143.093750	3952.579590	13.690347
511.029999	1103.627563	22161.296875	3872.936523	13.151071
511.380585	1080.872437	22352.441406	3950.304199	13.489516
511.731140	1103.627563	22800.718750	3927.548828	13.015207
512.081726	1083.147949	22805.269531	3843.354736	12.706894
512.432129	1105.903076	23094.259766	3909.344727	12.749663
512.782654	1121.831787	23285.404297	4059.529053	13.254620
513.133057	1055.841675	23278.578125	3859.283203	12.615194
513.483398	1085.423462	23226.240234	3818.323975	12.343268
513.833801	1110.454102	23260.373047	3779.640137	12.050546
514.183960	1101.352051	22805.269531	3759.160400	12.245753
514.534302	1155.964600	22834.851563	3745.507324	11.944999
514.884460	1158.240112	22802.994141	3702.272461	11.753574
515.234619	1062.668213	22468.492188	3599.874023	11.852876
515.584717	1160.515625	22641.431641	3602.149414	11.366526
515.934753	1119.556274	22643.707031	3640.833252	11.713712
516.284851	1149.138062	22748.380859	3542.985840	11.083017
516.634766	1126.382813	23194.382813	3627.180176	11.332233
516.984741	1121.831787	23303.609375	3536.159424	10.884284
517.334595	1126.382813	24143.275391	3613.527100	10.805735
517.684448	1085.423462	24732.634766	3722.751953	11.152810
518.034363	1064.943726	25954.589844	3770.538086	10.870360
518.384094	1042.188477	26737.369141	3859.283203	10.963514
518.733826	1142.311401	27900.160156	3973.059326	10.579131
519.083496	1085.423462	28473.591797	3854.732178	10.111332
519.433167	1135.484863	28915.042969	3938.926514	10.091743
519.782776	1074.045776	28612.398438	3966.232666	10.502397
520.132324	1176.444214	28029.865234	3888.864990	10.100839
520.481873	1101.352051	27360.861328	3763.711426	10.138648
520.831299	1108.178589	27162.892578	3656.761963	9.781659
521.180786	1076.321289	26350.531250	3570.292236	9.867651
521.530151	1199.199463	25938.662109	3506.577637	9.326711
521.879517	1180.995239	25390.261719	3360.944336	9.004607
522.228882	1083.147949	25151.332031	3308.607178	9.246478
522.578064	1167.342163	25126.300781	3290.403076	8.861240
522.927307	1135.484863	25472.179688	3201.657715	8.489948
523.276489	1103.627563	25560.925781	3299.505127	8.978414
523.625610	1108.178589	25438.046875	3290.403076	8.969323
523.974792	1171.893188	26264.060547	3426.934326	8.987031
524.323792	1099.076538	26710.062500	3260.821289	8.440693
524.672852	1105.903076	27165.167969	3315.433838	8.478868
525.021790	1096.801025	28248.314453	3351.842041	8.305397
525.370728	1058.117188	29233.615234	3445.138428	8.471975
525.719604	1169.617676	30553.417969	3570.292236	8.170061
526.068420	1135.484863	32644.621094	3670.415039	8.045064
526.417297	1096.801025	34030.414063	3686.343750	7.862917
526.765991	1160.515625	34663.007813	3713.649902	7.620729
527.114746	1185.546387	35834.902344	3843.354736	7.670585
527.463379	1160.515625	37136.500000	3702.272461	7.065149
527.812012	1099.076538	38902.304688	3886.589600	7.373744
528.160706	1199.199463	42383.851563	4202.886719	7.293220
528.509155	1169.617676	47483.292969	4478.225098	7.143910
528.857727	1115.005249	52282.367188	4826.379395	7.253401
529.206177	1121.831787	54940.175781	5003.870117	7.213225
529.554565	1142.311401	55174.554688	5019.798828	7.176247
529.902893	1105.903076	54275.722656	4837.757324	7.018745
530.251221	1069.494751	51479.105469	4487.327148	6.780121
530.599548	1115.005249	47713.121094	4234.744141	6.694989
530.947876	1135.484863	43594.425781	4045.875977	6.854601
531.296021	1112.729614	40638.527344	3659.037354	6.442141
531.644165	1174.168701	37584.777344	3433.760986	6.205863
531.992249	1208.301514	35803.042969	3449.689453	6.478984
532.340454	1083.147949	34674.386719	3197.106689	6.293185
532.688354	1108.178589	35291.050781	3231.239502	6.210892
533.036438	1146.862427	36283.179688	3147.045166	5.692636
533.384338	1080.872437	39011.527344	3319.984863	5.903173
533.732239	1108.178589	40265.339844	3413.281250	5.886797
534.080139	1137.760376	40834.222656	3458.791504	5.846948
534.427917	1155.964600	40515.648438	3481.546875	5.908539
534.775757	1112.729614	38656.546875	3251.719238	5.697316
535.123474	1137.760376	37095.539063	3263.096924	5.910645
535.471191	1105.903076	35163.621094	3090.157227	5.826151
535.818848	1074.045776	33934.839844	2914.942139	5.602106
536.166382	1153.689087	32382.937500	2828.472412	5.362868
536.513977	1085.423462	33274.941406	2782.961914	5.273575
536.861511	1162.791138	33434.226563	2757.931152	4.942885
537.208984	1119.556274	33304.523438	2735.176025	5.019796
537.556396	1192.372925	33095.175781	2837.574463	5.156919
537.903809	1135.484863	32223.650391	2778.410889	5.284731
538.251160	1089.974487	31240.625000	2660.083740	5.207547
538.598389	1096.801025	29882.138672	2500.797363	4.877470
538.945740	1119.556274	28824.021484	2539.481201	5.125257
539.292969	1142.311401	28339.335938	2430.256104	4.735609
539.640137	1076.321289	28155.019531	2400.674561	4.890757
539.987244	1044.463989	28550.958984	2418.878662	4.996692
540.334351	1039.912964	29033.369141	2489.419678	5.178020
540.681458	1124.107300	30942.531250	2514.450439	4.662698
541.028442	1096.801025	33534.351563	2523.552490	4.398456
541.375366	1176.444214	36943.082031	2701.043213	4.262629
541.722290	1121.831787	39619.093750	2801.166016	4.362217
542.069153	1176.444214	42015.214844	2944.523926	4.329415
542.416016	1146.862427	42156.296875	2855.778564	4.167130
542.762756	1108.178589	41064.046875	2830.747803	4.311180
543.109558	1180.995239	39605.441406	2803.441650	4.222433
543.456299	1137.760376	37878.320313	2632.777588	4.069119
543.802917	1210.577026	36447.015625	2569.062988	3.855344
544.149536	1135.484863	34667.558594	2566.787354	4.268458
544.496094	1101.352051	32546.773438	2471.215576	4.356321
544.842651	1099.076538	30812.828125	2323.306641	4.120079
545.189148	1167.342163	29743.332031	2177.673340	3.535595
545.535583	1215.128052	28282.447266	2148.091553	3.446826
545.882019	1087.698975	27381.341797	2186.775391	4.180008
546.228333	1183.270874	27265.291016	2093.479248	3.489793
546.574707	1133.209351	27069.595703	2054.795166	3.553254
546.920898	1153.689087	27599.791016	2059.346436	3.424540
547.267212	1110.454102	27458.708984	2072.999512	3.653166
547.613342	1103.627563	27080.972656	2107.132324	3.863000
547.959473	1119.556274	26885.277344	2011.560425	3.461980
548.305664	1112.729614	26543.949219	2059.346436	3.722263
548.651611	1142.311401	25108.095703	1943.294800	3.342196
548.997742	1169.617676	24191.062500	1900.059814	3.172877
549.343689	1160.515625	23535.710938	1913.713013	3.366216
549.689575	1171.893188	22388.849609	1868.202637	3.281853
550.035522	1119.556274	21612.896484	1809.039063	3.364424
550.381287	1128.658325	20616.218750	1763.528564	3.257823
550.727173	1133.209351	20714.066406	1772.630737	3.265543
551.072876	1089.974487	20095.125000	1770.355225	3.579981
551.418640	1108.178589	19815.234375	1670.232300	3.004501
551.764282	1117.280762	19621.816406	1713.467163	3.221839
552.109863	1112.729614	20026.859375	1777.181763	3.512994
552.455505	1121.831787	19908.531250	1761.253052	3.403585
552.801025	1119.556274	20322.675781	1756.702026	3.317929
553.146545	1085.423462	20593.462891	1738.497925	3.347720
553.491943	1101.352051	20880.179688	1736.222412	3.209848
553.837341	1087.698975	20718.617188	1704.365112	3.141301
554.182800	1117.280762	20700.412109	1708.916138	3.021148
554.528015	1055.841675	20149.736328	1658.854614	3.158145
554.873352	1099.076538	20015.480469	1695.262939	3.151690
555.218628	1099.076538	19596.785156	1695.262939	3.223028
555.563721	1133.209351	19296.416016	1626.997314	2.718617
555.908875	1092.250000	18971.017578	1601.966675	2.850961
556.254028	1094.525513	18832.210938	1654.303589	3.155869
556.599121	1192.372925	18465.851563	1524.598877	1.923330
556.944031	1165.066650	18097.216797	1595.140137	2.539982
557.289063	1108.178589	18302.013672	1561.007324	2.633669
557.633972	1146.862427	17985.716797	1606.517700	2.729730
557.978882	1142.311401	18015.298828	1533.701050	2.319623
558.323792	1155.964600	17908.349609	1542.803101	2.309155
558.668518	1160.515625	17667.142578	1531.425537	2.247036
559.013306	1212.852539	17660.316406	1558.731689	2.102933
559.358032	1155.964600	17676.246094	1463.159912	1.859504
559.702637	1126.382813	17710.378906	1495.017212	2.222832
560.047363	1067.219238	17621.632813	1533.701050	2.817870
560.391846	1076.321289	17455.519531	1524.598877	2.736871
560.736450	1146.862427	17512.408203	1492.741699	2.113460
561.080933	1099.076538	17569.296875	1535.976563	2.652667
561.425354	1121.831787	17928.828125	1531.425537	2.437043
561.769775	1064.943726	17928.828125	1447.231201	2.266901
562.114136	1174.168701	18010.748047	1508.670288	1.986755
562.458496	1158.240112	17928.828125	1444.955688	1.709633
562.802673	1126.382813	18158.656250	1492.741699	2.150969
563.146912	1133.209351	17931.103516	1531.425537	2.370631
563.491150	1103.627563	17585.224609	1506.394775	2.443739
563.835266	1142.311401	17539.714844	1545.078613	2.456286
564.179443	1169.617676	17751.337891	1403.996338	1.413476
564.523438	1142.311401	17612.531250	1554.180664	2.500691
564.867493	1101.352051	17628.458984	1467.710938	2.216715
565.211426	1162.791138	18129.074219	1497.292725	1.971567
565.555359	1071.770264	18024.400391	1515.496826	2.617450
565.899231	1089.974487	18468.126953	1542.803101	2.605735
566.243042	1149.138062	19139.406250	1497.292725	1.935239
566.586914	1144.586914	19542.171875	1524.598877	2.065553
566.930603	1087.698975	19894.878906	1535.976563	2.383545
567.274292	1099.076538	19965.419922	1586.037964	2.581112
567.617981	1094.525513	19954.041016	1520.047852	2.256274
567.961609	1165.066650	19665.050781	1469.986450	1.648216
568.305237	1133.209351	19423.845703	1495.017212	1.978104
568.648682	1071.770264	18875.445313	1474.537476	2.262270
568.992188	1128.658325	18531.841797	1451.782227	1.856694
569.335632	1076.321289	18513.636719	1526.874512	2.583845
569.679016	1135.484863	18495.433594	1488.190552	2.031721
570.022461	1142.311401	18245.125000	1447.231201	1.782863
570.365662	1130.933838	18504.535156	1476.812988	1.990832
570.708984	1110.454102	18208.716797	1417.649414	1.796646
571.052185	1099.076538	18481.779297	1481.364014	2.199241
571.395386	1089.974487	18595.556641	1545.078613	2.599766
571.738525	1103.627563	19339.650391	1469.986450	2.008985
572.081604	1133.209351	19569.478516	1506.394775	2.024192
572.424683	1153.689087	19792.480469	1497.292725	1.843487
572.767578	1099.076538	20115.603516	1554.180664	2.393203
573.110596	1087.698975	19899.429688	1499.568237	2.189428
573.453552	1115.005249	19853.919922	1415.373901	1.602914
573.796387	1133.209351	19369.232422	1499.568237	2.008985
574.139282	1096.801025	19578.580078	1490.466064	2.130017
574.481995	1178.719727	19200.843750	1444.955688	1.477273
574.824768	1101.352051	19157.609375	1426.751587	1.802143
575.167480	1094.525513	19023.353516	1449.506714	1.979946
575.510132	1103.627563	18918.679688	1583.762451	2.695108
575.852722	1117.280762	18977.843750	1510.945801	2.204102
576.195251	1144.586914	18927.781250	1479.088501	1.880998
576.537842	1140.035889	18695.679688	1499.568237	2.047959
576.880188	1149.138062	18390.759766	1444.955688	1.715718
577.222717	1103.627563	17937.929688	1456.333252	2.095161
577.565063	1083.147949	17476.000000	1410.822876	1.998889
577.907410	1165.066650	17466.898438	1463.159912	1.828588
578.249756	1128.658325	17095.988281	1351.659302	1.396608
578.591919	1117.280762	16431.535156	1401.720825	1.857355
578.934204	1124.107300	16374.647461	1419.924927	1.939719
579.276306	1130.933838	16097.034180	1415.373901	1.900562
579.618469	1083.147949	15471.265625	1419.924927	2.340661
579.960571	1124.107300	15482.643555	1351.659302	1.584786
580.302551	1089.974487	15268.744141	1310.699951	1.556732
580.644531	1126.382813	15102.631836	1476.812988	2.507326
580.986511	1112.729614	14763.579102	1435.853638	2.367062
581.328369	1085.423462	14827.293945	1353.934937	1.953966
581.670227	1183.270874	14733.997070	1397.169800	1.578505
582.012024	1144.586914	14688.486328	1390.343262	1.814517
582.353821	1201.474976	14658.905273	1331.179688	0.963815
582.695496	1112.729614	14447.281250	1378.965576	1.996587
583.037231	1158.240112	14545.128906	1365.312500	1.546830
583.378845	1206.026001	14531.475586	1385.792114	1.349044
583.720398	1169.617676	14249.311523	1310.699951	1.078636
584.062012	1155.964600	14526.924805	1353.934937	1.480599
584.403442	1140.035889	14069.544922	1324.353149	1.425555
584.744934	1155.964600	14026.310547	1335.730713	1.396747
585.086365	1115.005249	14217.454102	1315.250977	1.528308
585.427734	1112.729614	14235.658203	1340.281738	1.734004
585.768982	1231.056763	14231.107422	1258.363037	0.210047
586.110291	1126.382813	14003.554688	1351.659302	1.749425
586.451599	1130.933838	13896.605469	1365.312500	1.836007
586.792725	1174.168701	14146.913086	1376.690063	1.561130
587.133850	1046.739624	13960.320313	1344.832764	2.308369
587.474915	1126.382813	14237.933594	1335.730713	1.596668
587.815979	1103.627563	14028.585938	1353.934937	1.936620
588.157043	1171.893188	14078.647461	1372.139038	1.551481
588.497925	1103.627563	14046.790039	1342.557251	1.845992
588.838867	1103.627563	14283.444336	1399.445313	2.244476
589.179749	1174.168701	14231.107422	1338.006226	1.254793
589.520569	1178.719727	14551.955078	1319.802124	1.054961
589.861450	1160.515625	14724.895508	1363.036987	1.493038
590.202087	1124.107300	14472.312500	1306.148926	1.363791
590.542847	1169.617676	14840.946289	1331.179688	1.181758
590.883484	1137.760376	14772.680664	1360.761475	1.635514
591.224121	1194.648438	14504.169922	1385.792114	1.436142
591.564636	1094.525513	14820.466797	1294.771362	1.458886
591.905151	1037.637451	14292.545898	1310.699951	2.060086
592.245667	1051.290649	14328.954102	1312.975464	1.970865
592.585999	1142.311401	14410.873047	1378.965576	1.783571
592.926453	1105.903076	14035.412109	1294.771362	1.460754
593.266724	1126.382813	14215.178711	1358.485962	1.773296
593.607056	1121.831787	14235.658203	1319.802124	1.509631
593.947388	1117.280762	14328.954102	1376.690063	1.963485
594.287476	1089.974487	14292.545898	1358.485962	2.033782
594.627686	1121.831787	14465.485352	1303.873413	1.364256
594.967773	1187.821899	14479.138672	1351.659302	1.232665
595.307861	1178.719727	14845.498047	1433.578125	1.864802
595.647888	1115.005249	14863.702148	1324.353149	1.522674
595.987854	1158.240112	15132.212891	1331.179688	1.237584
596.327820	1110.454102	15311.979492	1285.669312	1.233777
596.667725	1099.076538	15637.378906	1340.281738	1.659101
597.007568	1212.852539	16265.422852	1353.934937	0.937265
597.347351	1169.617676	16731.904297	1294.771362	0.804211
597.687073	1085.423462	17212.039063	1372.139038	1.777903
598.026794	1133.209351	16802.445313	1397.169800	1.684578
598.366455	1151.413574	16513.455078	1413.098389	1.703451
598.706116	1146.862427	16147.095703	1369.863525	1.486651
599.045654	1169.617676	15664.685547	1360.761475	1.318682
599.385193	1155.964600	15022.988281	1328.904175	1.247128
599.724731	1171.893188	14426.801758	1331.179688	1.201717
600.064087	1083.147949	14454.108398	1287.944824	1.531654
600.403564	1105.903076	13992.177734	1335.730713	1.783507
600.742920	1085.423462	13782.829102	1324.353149	1.881721
601.082153	1130.933838	13744.145508	1290.220337	1.262854
601.421387	1151.413574	13430.124023	1356.210449	1.667902
601.760620	1055.841675	13512.042969	1272.016113	1.735476
602.099854	1064.943726	13703.186523	1390.343262	2.574721
602.438843	1149.138062	13628.093750	1322.077637	1.385850
602.778015	1149.138062	13999.003906	1349.383789	1.558349
603.117065	1089.974487	14080.922852	1306.148926	1.664039
603.456055	1060.392700	14711.242188	1365.312500	2.233706
603.794983	1096.801025	14838.670898	1347.108276	1.821493
604.133850	1133.209351	15560.011719	1426.751587	2.034701
604.472778	1142.311401	15817.145508	1438.129150	2.015817
604.811584	1183.270874	16552.138672	1392.618774	1.362156
605.150330	1119.556274	16811.546875	1438.129150	2.030162
605.489075	1130.933838	17082.333984	1383.516602	1.583452
605.827698	1094.525513	16731.904297	1426.751587	2.124564
606.166382	1119.556274	16652.261719	1390.343262	1.743334
606.504883	1124.107300	16165.299805	1363.036987	1.588502
606.843445	976.198425	15616.899414	1372.139038	2.704383
607.181946	1140.035889	15318.805664	1408.547363	1.893757
607.520386	1165.066650	14349.434570	1308.424438	1.087332
607.858826	1162.791138	14301.648438	1356.210449	1.472117
608.197083	1149.138062	13958.044922	1324.353149	1.367916
608.535461	1085.423462	13776.002930	1283.393677	1.559978
608.873718	1146.862427	13821.513672	1306.148926	1.256733
609.211914	1146.862427	14404.046875	1347.108276	1.510470
609.550171	1080.872437	14615.669922	1353.934937	2.017485
609.888245	1144.586914	14986.580078	1294.771362	1.084991
610.226318	1092.250000	15396.173828	1326.628662	1.638562
610.564392	1190.097412	15530.429688	1331.179688	0.983815
610.902344	1144.586914	15177.723633	1381.241089	1.686395
611.240295	1133.209351	15054.845703	1358.485962	1.618176
611.578247	1101.352051	14338.056641	1335.730713	1.770672
611.916138	1089.974487	14476.863281	1258.363037	1.257862
612.253845	1146.862427	13826.064453	1376.690063	1.812635
612.591675	1117.280762	13537.073242	1283.393677	1.337485
612.929382	1160.515625	13461.981445	1342.557251	1.479837
613.267090	1142.311401	12990.948242	1308.424438	1.401959
613.604736	1144.586914	12947.712891	1274.291626	1.098901
613.942261	1133.209351	12485.782227	1269.740601	1.202646
614.279785	1046.739624	12474.405273	1315.250977	2.349660
614.617310	1130.933838	12137.627930	1196.923950	0.599545
614.954712	1085.423462	12267.333008	1272.016113	1.668701
615.292175	1178.719727	12078.464844	1413.098389	2.150313
615.629517	1187.821899	11969.239258	1265.189575	0.717602
615.966797	1183.270874	12060.259766	1292.495850	1.004184
616.304138	1103.627563	11980.617188	1260.638550	1.443515
616.641296	1119.556274	11932.831055	1287.944824	1.557239
616.978516	1130.933838	12060.259766	1269.740601	1.270040
617.315552	1201.474976	11989.718750	1322.077637	1.117908
617.652771	1235.607788	11841.810547	1297.046875	0.579275
617.989685	1124.107300	12094.392578	1308.424438	1.680149
618.326721	1121.831787	11855.462891	1249.260864	1.187194
618.663696	1142.311401	12078.464844	1299.322388	1.435706
619.000549	1103.627563	12101.219727	1292.495850	1.717360
619.337463	1142.311401	11989.718750	1249.260864	0.985945
619.674194	1162.791138	11960.137695	1312.975464	1.390937
620.010986	1171.893188	11828.157227	1281.118164	1.024984
620.347778	1033.086426	11966.963867	1363.036987	3.017690
620.684387	1110.454102	11878.218750	1385.792114	2.557058
621.020996	1101.352051	11534.615234	1226.505737	1.199564
621.357605	1117.280762	11923.728516	1174.168701	0.526426
621.694214	1087.698975	11439.042969	1326.628662	2.308200
622.030579	1094.525513	11439.042969	1299.322388	1.979762
622.367065	1128.658325	11484.553711	1256.087524	1.230499
622.703430	1144.586914	11468.625000	1276.567139	1.278378
623.039795	1051.290649	11532.339844	1233.332275	1.736865
623.376160	1035.361938	11386.706055	1212.852539	1.714662
623.712402	1099.076538	11461.797852	1276.567139	1.712780
624.048645	1151.413574	11464.074219	1294.771362	1.390115
624.384766	1115.005249	11131.847656	1292.495850	1.771922
624.720886	1019.433350	11361.675781	1333.455200	3.036303
625.057007	1094.525513	11361.675781	1349.383789	2.482269
625.392944	1153.689087	11429.941406	1285.669312	1.284323
625.729004	1096.801025	11468.625000	1331.179688	2.259763
626.064941	1140.035889	11618.809570	1219.679199	0.760044
626.400818	1151.413574	11903.249023	1319.802124	1.566138
626.736633	1110.454102	12087.566406	1285.669312	1.596187
627.072449	1128.658325	12210.444336	1253.812012	1.129364
627.408264	1085.423462	12503.986328	1306.148926	1.933041
627.743896	1028.535400	12376.557617	1299.322388	2.386204
628.079590	1142.311401	12613.211914	1242.434326	0.872843
628.415161	1162.791138	12365.179688	1376.690063	1.909405
628.750793	1162.791138	12296.914063	1324.353149	1.451053
629.086365	1151.413574	12055.708984	1294.771362	1.314691
629.421753	1155.964600	11778.095703	1299.322388	1.349614
629.757263	1133.209351	11693.901367	1265.189575	1.249731
630.092651	1146.862427	11607.431641	1292.495850	1.392213
630.427917	1185.546387	11275.206055	1315.250977	1.285520
630.763184	1167.342163	11077.235352	1301.597900	1.354765
631.098511	1144.586914	11245.624023	1287.944824	1.419240
631.433716	1067.219238	10911.122070	1360.761475	2.981970
631.768799	1128.658325	10931.601563	1256.087524	1.299908
632.103943	1142.311401	10745.008789	1281.118164	1.445498
632.438965	1089.974487	10380.925781	1269.740601	1.934852
632.773987	1099.076538	10471.946289	1294.771362	2.087886
633.109070	1087.698975	10606.202148	1185.546387	1.027971
633.443848	1074.045776	10362.721680	1342.557251	2.890740
633.778870	1176.444214	10658.539063	1274.291626	1.031918
634.113708	1194.648438	10704.049805	1306.148926	1.172529
634.448425	1121.831787	10683.570313	1322.077637	2.094241
634.783264	1142.311401	10487.875000	1249.260864	1.144387
635.117859	1119.556274	10547.039063	1224.230225	1.110307
635.452576	1064.943726	10567.518555	1324.353149	2.729886
635.787170	1126.382813	10430.987305	1226.505737	1.076058
636.121704	1089.974487	10253.497070	1292.495850	2.210082
636.456177	1137.760376	10351.343750	1190.097412	0.568042
636.790588	1135.484863	10141.996094	1219.679199	0.934816
637.125122	1069.494751	9987.260742	1228.781250	1.786170
637.459412	1167.342163	9891.688477	1301.597900	1.538863
637.793762	1140.035889	9868.933594	1276.567139	1.564129
638.128052	1099.076538	9443.411133	1228.781250	1.554404
638.462280	1206.026001	9602.698242	1224.230225	0.216803
638.796509	1162.791138	9736.953125	1278.842651	1.353503
639.130615	1124.107300	9520.779297	1285.669312	1.924120
639.464722	1137.760376	9306.879883	1208.301514	0.863510
639.798767	1133.209351	9318.257813	1212.852539	0.973033
640.132751	1160.515625	9482.094727	1228.781250	0.820345
640.466736	1076.321289	9095.256836	1260.638550	2.298525
640.800598	1121.831787	9143.042969	1256.087524	1.673759
641.134521	1071.770264	9088.429688	1244.709839	2.157253
641.468262	1119.556274	9092.981445	1290.220337	2.140411
641.802063	1021.708862	8972.378906	1258.363037	2.976531
642.135803	1117.280762	8954.174805	1251.536499	1.713124
642.469421	1162.791138	8692.489258	1206.026001	0.574191
642.803101	1074.045776	8840.398438	1235.607788	2.080282
643.136658	1119.556274	8753.928711	1180.995239	0.804768
643.470215	1149.138062	8758.479492	1206.026001	0.747607
643.803711	1221.954712	8621.948242	1231.056763	0.123001
644.137085	1137.760376	8535.478516	1231.056763	1.261151
644.470581	1117.280762	8742.550781	1217.403687	1.313041
644.803833	1103.627563	8464.937500	1281.118164	2.411128
645.137207	1160.515625	8692.489258	1265.189575	1.389728
645.470459	1105.903076	8560.508789	1244.709839	1.862027
645.803589	1128.658325	8585.540039	1228.781250	1.342692
646.136780	1110.454102	8644.703125	1312.975464	2.688010
646.469849	1137.760376	8849.500000	1260.638550	1.593391
646.802979	1140.035889	8642.427734	1317.526489	2.365787
647.135986	1219.679199	8546.856445	1310.699951	1.242235
647.468994	1094.525513	8756.204102	1244.709839	1.960201
647.801941	1167.342163	8706.142578	1258.363037	1.207366
648.134766	1190.097412	8697.040039	1251.536499	0.818430
648.467651	1149.138062	8756.204102	1351.659302	2.662278
648.800354	1071.770264	8699.316406	1281.118164	2.744630
649.133179	1140.035889	8758.479492	1212.852539	0.955794
649.465881	1108.178589	8549.131836	1226.505737	1.590215
649.798462	1101.352051	8715.245117	1192.372925	1.195458
650.131104	1078.596802	8640.152344	1272.016113	2.557930
650.463623	1240.158813	8694.764648	1185.546387	-0.732600
650.796143	1144.586914	8496.794922	1267.465088	1.671310
651.128662	1108.178589	8694.764648	1267.465088	2.099581
651.461060	1144.586914	8617.397461	1260.638550	1.552985
651.793396	1064.943726	8710.693359	1176.444214	1.458333
652.125732	1089.974487	8715.245117	1206.026001	1.521933
652.458008	1076.321289	8599.193359	1199.199463	1.633394
652.790222	1069.494751	8744.826172	1299.322388	2.994368
653.122437	1099.076538	8580.989258	1212.852539	1.520681
653.454529	1144.586914	8628.774414	1294.771362	2.006690
653.786621	1099.076538	8683.387695	1265.189575	2.190219
654.118713	1162.791138	8569.611328	1215.128052	0.706604
654.450623	1096.801025	8590.090820	1269.740601	2.307926
654.782654	1162.791138	8499.070313	1194.648438	0.434243
655.114502	1140.035889	8417.151367	1262.914063	1.688556
655.446350	1201.474976	8351.161133	1149.138062	-0.732017
655.778198	1178.719727	8239.661133	1242.434326	0.902353
656.109863	1124.107300	8262.416016	1258.363037	1.880778
656.441650	1180.995239	8278.344727	1283.393677	1.442770
656.773254	1171.893188	8244.211914	1267.465088	1.351352
657.104919	1140.035889	8205.528320	1242.434326	1.449275
657.436462	1135.484863	8112.231445	1244.709839	1.565557
657.767944	1042.188477	8328.406250	1274.291626	3.185509
658.099548	1044.463989	8362.539063	1262.914063	2.985075
658.430908	1069.494751	8367.089844	1180.995239	1.527907
658.762268	1119.556274	8512.723633	1265.189575	1.969836
659.093628	1037.637451	8867.704102	1233.332275	2.499274
659.424927	1094.525513	9081.603516	1299.322388	2.564103
659.756226	1119.556274	9586.769531	1265.189575	1.719967
660.087341	1092.250000	9743.780273	1285.669312	2.235666
660.418518	1103.627563	9686.891602	1283.393677	2.094379
660.749573	1140.035889	9627.728516	1319.802124	2.117964
661.080627	1140.035889	9527.605469	1312.975464	2.061856
661.411621	1119.556274	9552.636719	1274.291626	1.834862
661.742554	1089.974487	9104.358398	1199.199463	1.362862
662.073547	1099.076538	9038.368164	1233.332275	1.691029
662.404297	1151.413574	8956.450195	1178.719727	0.349853
662.735229	1153.689087	8631.050781	1292.495850	1.856360
663.065979	1094.525513	8378.467773	1265.189575	2.343018
663.396667	1135.484863	8264.691406	1317.526489	2.553463
663.727417	1119.556274	8028.037598	1265.189575	2.108036
664.057922	1151.413574	7952.945313	1317.526489	2.442287
664.388611	1124.107300	7927.914551	1226.505737	1.505017
664.719116	1133.209351	7805.036133	1281.118164	2.216916
665.049622	1146.862427	7661.678711	1215.128052	1.047852
665.380005	1083.147949	7659.402832	1240.158813	2.387542
665.710388	1053.566162	7545.626953	1262.914063	3.224676
666.040771	1115.005249	7679.882813	1251.536499	2.079723
666.371033	1149.138062	7538.800293	1281.118164	2.065526
666.701294	1171.893188	7520.596191	1237.883301	1.039427
667.031555	1130.933838	7627.545898	1215.128052	1.295971
667.361633	1128.658325	7345.381348	1297.046875	2.708638
667.691772	1149.138062	7516.045410	1294.771362	2.287348
668.021790	1064.943726	7616.167969	1187.821899	1.875652
668.351807	1133.209351	7477.361328	1215.128052	1.291247
668.681763	1130.933838	7531.973633	1180.995239	0.782082
669.011719	1126.382813	7493.290039	1162.791138	0.571837
669.341614	1112.729614	7720.842285	1171.893188	0.895317
669.671387	1130.933838	7634.372070	1297.046875	2.554234
670.001221	1142.311401	7593.413086	1226.505737	1.305116
670.330933	1101.352051	7486.463379	1246.985352	2.280826
670.660583	1117.280762	7634.372070	1303.873413	2.863128
670.990173	1146.862427	7468.259277	1297.046875	2.375811
671.319763	1146.862427	7399.993652	1285.669312	2.219798
671.649292	1146.862427	7297.595215	1190.097412	0.702924
671.978821	1071.770264	7577.484375	1224.230225	2.343478
672.308289	1110.454102	7377.238281	1224.230225	1.815542
672.637695	1149.138062	7231.604980	1194.648438	0.748222
672.966980	1092.250000	7202.023438	1149.138062	0.931099
673.296326	1194.648438	7067.767578	1219.679199	0.426192
673.625610	1087.698975	7242.982910	1258.363037	2.772643
673.954773	1110.454102	7076.869629	1249.260864	2.326468
674.283936	1187.821899	7154.237305	1242.434326	0.915331
674.613037	1126.382813	6958.542480	1242.434326	1.989855
674.942078	1121.831787	6901.654785	1187.821899	1.141732
675.271118	1108.178589	7074.594238	1210.577026	1.716247
675.600098	1096.801025	6992.675293	1242.434326	2.470088
675.928955	1135.484863	7095.073730	1176.444214	0.687285
676.257813	1155.964600	6935.787598	1240.158813	1.456692
676.586670	1096.801025	6988.124512	1167.342163	1.197373
676.915466	1110.454102	6922.134277	1201.474976	1.566171
677.244141	1203.750488	6897.103516	1246.985352	0.759392
677.572876	1103.627563	6862.970703	1196.923950	1.619914
677.901489	1110.454102	6892.552734	1171.893188	1.062574
678.230042	1087.698975	6906.205566	1249.260864	2.776690
678.558594	1064.943726	7022.257324	1317.526489	4.239877
678.887085	1092.250000	7133.757813	1256.087524	2.711865
679.215515	1092.250000	7067.767578	1219.679199	2.132522
679.543945	1137.760376	7231.604980	1306.148926	2.763256
679.872253	1140.035889	7270.289063	1194.648438	0.890869
680.200562	1064.943726	7279.391113	1249.260864	2.965946
680.528809	1174.168701	7404.544922	1283.393677	1.753104
680.856995	1140.035889	7670.780762	1240.158813	1.533101
681.185120	1162.791138	7668.504883	1242.434326	1.224204
681.513306	1112.729614	7827.791504	1194.648438	1.219926
681.841309	1064.943726	7784.556641	1235.607788	2.539790
682.169373	1180.995239	7531.973633	1231.056763	0.788249
682.497314	1194.648438	7661.678711	1233.332275	0.598170
682.825134	1128.658325	7593.413086	1276.567139	2.287926
683.153076	1101.352051	7388.616211	1228.781250	2.026783
683.480896	1087.698975	7322.625977	1256.087524	2.700730
683.808655	1169.617676	7247.533691	1258.363037	1.460128
684.136414	1062.668213	7038.186035	1272.016113	3.503427
684.464050	1121.831787	7022.257324	1169.617676	0.809872
684.791626	1037.637451	6765.123535	1212.852539	3.059197
685.119263	1069.494751	6853.868652	1231.056763	2.793077
685.446838	1167.342163	6614.938965	1192.372925	0.459483
685.774292	1101.352051	6610.387695	1224.230225	2.230484
686.101685	1149.138062	6576.254883	1208.301514	1.090145
686.429077	1137.760376	6662.725098	1274.291626	2.471169
686.756348	1176.444214	6539.846680	1226.505737	0.933391
687.083679	1069.494751	6373.733887	1201.474976	2.488203
687.410950	1101.352051	6412.417480	1231.056763	2.442160
687.738159	1212.852539	6655.898438	1212.852539	0.000000
688.065308	1094.525513	6592.183594	1201.474976	1.945364
688.392395	1185.546387	6628.592285	1233.332275	0.877926
688.719421	1160.515625	6696.857910	1206.026001	0.822030
689.046448	1178.719727	6635.418457	1194.648438	0.291911
689.373413	1158.240112	6558.050781	1190.097412	0.589971
689.700317	1103.627563	6535.295898	1171.893188	1.256808
690.027100	1142.311401	6348.703125	1253.812012	2.141610
690.353943	1117.280762	6498.887207	1162.791138	0.845665
690.680725	1103.627563	6462.479004	1196.923950	1.740977
691.007446	1108.178589	6205.345215	1144.586914	0.714286
691.334106	1069.494751	6173.487793	1201.474976	2.585823
691.660645	1108.178589	6096.120117	1199.199463	1.824818
691.987244	1151.413574	6139.354980	1199.199463	0.958028
692.313721	1062.668213	6034.681152	1160.515625	1.967964
692.640259	1096.801025	5907.251953	1128.658325	0.662252
692.966675	1103.627563	5875.394531	1233.332275	2.718169
693.293030	1117.280762	5934.558105	1196.923950	1.653282
693.619324	1126.382813	5850.363770	1178.719727	1.107898
693.945618	1133.209351	5820.782227	1130.933838	-0.048544
694.271851	1099.076538	5750.241211	1155.964600	1.223093
694.598083	1121.831787	5631.914063	1217.403687	2.119072
694.924194	1128.658325	5759.343262	1196.923950	1.474201
695.250244	1169.617676	5804.853516	1235.607788	1.423662
695.576294	1101.352051	5802.578125	1226.505737	2.662150
695.902283	1121.831787	5641.016113	1169.617676	1.057401
696.228210	1101.352051	5666.046875	1208.301514	2.342971
696.554138	1096.801025	5825.333008	1187.821899	1.924929
696.879944	1108.178589	5745.689941	1228.781250	2.600590
697.205750	1071.770264	5882.221191	1215.128052	2.980132
697.531433	1044.463989	5923.180664	1137.760376	1.912314
697.857178	1049.015137	5886.772461	1233.332275	3.809971
698.182739	1130.933838	6057.436523	1203.750488	1.478060
698.508423	1092.250000	6464.754395	1171.893188	1.482422
698.833984	1126.382813	6742.368164	1192.372925	1.175041
699.159485	1103.627563	6969.920410	1176.444214	1.241272
699.484924	1160.515625	7124.655762	1187.821899	0.457841
699.810303	1078.596802	7279.391113	1183.270874	1.688075
700.135681	1110.454102	7058.665527	1242.434326	2.218822
700.460999	1183.270874	7129.206543	1146.862427	-0.612325
700.786255	1165.066650	7008.604004	1183.270874	0.311527
701.111450	1192.372925	6826.562500	1089.974487	-1.817448
701.436646	1085.423462	6796.980469	1203.750488	2.071712
701.761719	1137.760376	6416.968750	1294.771362	2.974139
702.086792	1149.138062	6123.426270	1155.964600	0.137236
702.411865	1101.352051	6039.232422	1187.821899	1.751153
702.736816	1140.035889	5848.088379	1215.128052	1.594973
703.061646	1105.903076	5752.516602	1183.270874	1.665036
703.386536	1105.903076	5518.138184	1265.189575	3.610109
703.711365	1137.760376	5540.893066	1267.465088	2.945737
704.036194	1074.045776	5404.361816	1196.923950	2.837626
704.360901	1165.066650	5286.034668	1158.240112	-0.165654
704.685547	1108.178589	5142.677246	1160.515625	1.297238
705.010132	1146.862427	5124.472656	1208.301514	1.544623
705.334717	1042.188477	5097.166504	1228.781250	4.601573
705.659302	1092.250000	5060.758301	1235.607788	3.612385
705.983765	1101.352051	5081.237793	1180.995239	2.001143
706.308228	1108.178589	5017.523438	1133.209351	0.640280
706.632568	1165.066650	5063.033691	1180.995239	0.408638
706.956909	1046.739624	5056.207031	1165.066650	2.951191
707.281189	1099.076538	5049.380859	1178.719727	2.016128
707.605408	1128.658325	4983.390625	1190.097412	1.593861
707.929626	1151.413574	4937.880371	1246.985352	2.524036
708.253784	1149.138062	5138.125977	1208.301514	1.483170
708.577820	1137.760376	4960.635254	1242.434326	2.738095
708.901855	1094.525513	4969.737305	1135.484863	1.056958
709.225830	1076.321289	5022.074219	1267.465088	4.844292
709.549805	1158.240112	5058.482910	1137.760376	-0.525089
709.873718	1174.168701	5035.727539	1137.760376	-0.942840
710.197510	1117.280762	5088.064453	1183.270874	1.661891
710.521362	1110.454102	5088.064453	1258.363037	3.718538
710.845093	1158.240112	5279.208496	1201.474976	1.049143
711.168701	1174.168701	5304.238770	1169.617676	-0.110192
711.492432	1153.689087	5392.984375	1155.964600	0.053677
711.816040	1167.342163	5443.045898	1178.719727	0.266098
712.139587	1146.862427	5370.229004	1249.260864	2.424569
712.463074	1158.240112	5322.443359	1112.729614	-1.092898
712.786499	1146.862427	5440.770020	1130.933838	-0.370958
713.109924	1194.648438	5365.678223	1203.750488	0.218221
713.433350	1103.627563	5299.687988	1194.648438	2.169198
713.756592	1085.423462	5197.289551	1158.240112	1.770891
714.079834	1085.423462	5179.085449	1183.270874	2.390217
714.403015	1151.413574	5078.962402	1185.546387	0.869061
714.726196	1126.382813	5099.441895	1196.923950	1.775487
715.049255	1051.290649	5147.228027	1217.403687	4.055556
715.372375	1176.444214	5038.002930	1112.729614	-1.649971
715.695435	1155.964600	5106.268555	1169.617676	0.345621
716.018311	1126.382813	5001.594727	1199.199463	1.879037
716.341248	1140.035889	5103.993164	1176.444214	0.918484
716.664063	1096.801025	5154.054688	1176.444214	1.962983
716.987000	1178.719727	5042.554199	1158.240112	-0.530033
717.309692	1165.066650	4865.063477	1171.893188	0.184501
717.632385	1153.689087	4972.013184	1180.995239	0.715134
717.955078	1064.943726	4956.084473	1153.689087	2.280703
718.277649	1135.484863	4776.318359	1199.199463	1.750000
718.600220	1130.933838	4751.287598	1174.168701	1.194216
718.922791	1194.648438	4803.624512	1162.791138	-0.882724
719.245300	1183.270874	4610.205078	1144.586914	-1.128821
719.567688	1119.556274	4553.316895	1169.617676	1.457918
719.890015	1105.903076	4532.837402	1130.933838	0.730413
720.212341	1119.556274	4505.531250	1171.893188	1.545697
720.534607	1185.546387	4341.693848	1240.158813	1.730351
720.856873	1115.005249	4246.121582	1171.893188	1.816858
721.179016	1101.352051	4257.499512	1142.311401	1.297764
721.501160	1085.423462	4223.366699	1185.546387	3.190718
721.823242	1135.484863	4277.979004	1178.719727	1.375814
722.145264	1069.494751	4189.233887	1105.903076	1.167031
722.467224	1174.168701	4227.917480	1194.648438	0.670642
722.789185	1115.005249	4205.162598	1217.403687	3.313697
723.111023	1117.280762	4105.039551	1178.719727	2.056356
723.432861	1099.076538	4091.386475	1203.750488	3.498098
723.754578	1099.076538	4080.008789	1187.821899	2.977101
724.076294	1140.035889	4041.324951	1174.168701	1.176471
724.397949	1089.974487	3948.028564	1203.750488	3.980890
724.719666	1099.076538	4132.345703	1176.444214	2.550637
725.041260	1135.484863	4093.661865	1228.781250	3.153847
725.362732	1142.311401	4105.039551	1144.586914	0.076805
725.684265	1103.627563	4102.764160	1128.658325	0.834599
726.005676	1149.138062	4086.835449	1155.964600	0.232377
726.327087	1074.045776	4234.744141	1199.199463	3.959685
726.648438	1049.015137	4045.875977	1174.168701	4.176156
726.969666	1112.729614	4029.947266	1169.617676	1.950079
727.290894	1171.893188	4234.744141	1180.995239	0.297176
727.612061	1115.005249	4105.039551	1171.893188	1.902585
727.933228	1176.444214	4227.917480	1192.372925	0.522001
728.254395	1101.352051	4218.815430	1140.035889	1.240875
728.575378	1190.097412	4221.091309	1224.230225	1.126126
728.896301	1105.903076	4373.550781	1237.883301	4.038998
729.217285	1101.352051	4446.367676	1176.444214	2.244897
729.538147	1158.240112	4444.092285	1180.995239	0.692518
729.858948	1110.454102	4250.672852	1215.128052	3.333333
730.179810	1165.066650	4287.081055	1233.332275	2.186589
730.500549	1067.219238	4175.580566	1235.607788	5.417277
730.821228	1074.045776	4314.387207	1242.434326	5.196630
731.141846	1135.484863	4414.510254	1203.750488	2.081888
731.462402	1049.015137	4362.173340	1171.893188	3.708789
731.782898	1210.577026	4425.888184	1171.893188	-1.203113
732.103455	1140.035889	4510.082031	1178.719727	1.147873
732.423889	1137.760376	4412.234863	1153.689087	0.486451
732.744263	1094.525513	4453.194336	1221.954712	3.794039
733.064636	1151.413574	4434.990234	1212.852539	1.871099
733.384888	1069.494751	4364.448730	1171.893188	3.107735
733.705200	1094.525513	4357.622559	1201.474976	3.277544
734.025330	1217.403687	4432.714355	1281.118164	1.981596
734.345520	1101.352051	4382.652832	1285.669312	5.617201
734.665527	1058.117188	4341.693848	1183.270874	3.811505
734.985596	1137.760376	4362.173340	1165.066650	0.846860
735.305542	1044.463989	4214.264648	1258.363037	6.748028
735.625549	1051.290649	4080.008789	1242.434326	6.311042
735.945435	1108.178589	4341.693848	1233.332275	3.870515
736.265259	1119.556274	4143.723145	1235.607788	3.837471
736.585083	1151.413574	3982.161377	1210.577026	2.090029
736.904785	1058.117188	4025.396240	1217.403687	5.368100
737.224426	1151.413574	3963.957275	1224.230225	2.588996
737.544128	1110.454102	3959.406250	1151.413574	1.437703
737.863708	1087.698975	4016.294189	1249.260864	5.516703
738.183289	1103.627563	3861.558838	1174.168701	2.557755
738.502808	1137.760376	4068.631104	1160.515625	0.776399
738.822205	1151.413574	4011.743164	1174.168701	0.795542
739.141541	1133.209351	3888.864990	1201.474976	2.477292
739.460938	1178.719727	4107.314941	1240.158813	2.097903
739.780212	1094.525513	4136.896973	1174.168701	2.617800
740.099426	1219.679199	4130.070313	1237.883301	0.625486
740.418640	1119.556274	4004.916504	1272.016113	5.283910
740.737793	1083.147949	4045.875977	1212.852539	4.377877
741.056885	1089.974487	4020.845215	1244.709839	5.279501
741.375977	1101.352051	4109.590332	1194.648438	3.101363
741.694946	1151.413574	4155.101074	1155.964600	0.151515
742.013855	1160.515625	3988.988037	1231.056763	2.493966
742.332703	1117.280762	4016.294189	1219.679199	3.532182
742.651550	1171.893188	3827.426025	1196.923950	0.942589
742.970398	1112.729614	3745.507324	1287.944824	6.655146
743.289124	1119.556274	3850.181152	1231.056763	4.083332
743.607788	1180.995239	3684.068115	1203.750488	0.909093
743.926453	1083.147949	3829.701416	1206.026001	4.473900
744.245056	1194.648438	3788.742188	1228.781250	1.315789
744.563599	1162.791138	3686.343750	1203.750488	1.623083
744.882141	1108.178589	3702.272461	1180.995239	2.807017
745.200500	1044.463989	3624.904541	1160.515625	4.497358
745.518860	1176.444214	3636.282227	1237.883301	2.497689
745.837219	1133.209351	3615.802490	1240.158813	4.307974
746.155518	1069.494751	3704.547852	1215.128052	5.526769
746.473755	1155.964600	3583.945313	1287.944824	5.435802
746.791992	1155.964600	3538.434814	1292.495850	5.730659
747.110107	1110.454102	3579.394287	1212.852539	4.147465
747.428162	1140.035889	3581.669678	1244.709839	4.287045
747.746216	1126.382813	3554.363525	1262.914063	5.623243
748.064148	1080.872437	3579.394287	1281.118164	8.014567
748.382080	1124.107300	3731.854004	1233.332275	4.188481
748.700073	1174.168701	3611.251465	1226.505737	2.147528
749.017822	1128.658325	3643.108887	1253.812012	4.977377
749.335632	1155.964600	3577.118652	1231.056763	3.101503
749.653320	1110.454102	3622.629150	1278.842651	6.702899
749.971008	1203.750488	3684.068115	1251.536499	1.926609
750.288696	1144.586914	3640.833252	1262.914063	4.740203
750.606262	1112.729614	3529.332764	1228.781250	4.802263
750.923828	1121.831787	3656.761963	1235.607788	4.488329
751.241272	1064.943726	3611.251465	1353.934937	11.349422
751.558716	1149.138062	3558.914551	1328.904175	7.459867
751.876038	1137.760376	3492.924316	1317.526489	7.632849
752.193481	1135.484863	3599.874023	1349.383789	8.679592
752.510681	1096.801025	3508.853027	1349.383789	10.471697
752.827942	1126.382813	3422.383301	1385.792114	11.298312
753.145081	1083.147949	3602.149414	1303.873413	8.762419
753.462219	1089.974487	3574.843262	1292.495850	8.150184
753.779297	1162.791138	3472.444824	1283.393677	5.221672
754.096375	1167.342163	3474.720215	1260.638550	4.043394
754.413330	1196.923950	3458.791504	1272.016113	3.319918
754.730286	1119.556274	3522.506104	1319.802124	8.333335
755.047119	1124.107300	3588.496338	1372.139038	10.064633
755.363892	1101.352051	3465.618164	1331.179688	9.720887
755.680725	1196.923950	3474.720215	1347.108276	6.593404
755.997498	1144.586914	3385.974854	1353.934937	9.340107
756.314148	1180.995239	3397.352539	1403.996338	10.061604
756.630737	1226.505737	3345.015625	1340.281738	5.370568
756.947327	1169.617676	3376.872803	1326.628662	7.113405
757.263855	1119.556274	3440.587402	1338.006226	9.411762
757.580261	1108.178589	3442.863037	1394.894287	12.280704
757.896729	1206.026001	3315.433838	1326.628662	5.717371
758.213074	1128.658325	3411.005615	1333.455200	8.973082
758.529419	1124.107300	3472.444824	1397.169800	11.627908
758.845642	1144.586914	3449.689453	1401.720825	11.154988
759.161865	1076.321289	3442.863037	1449.506714	15.769231
759.478149	1140.035889	3470.169189	1401.720825	11.230471
759.794189	1142.311401	3549.812500	1472.261963	13.705106
760.110229	1130.933838	3602.149414	1465.435425	13.535913
760.426270	1074.045776	3638.557861	1501.843750	16.681456
760.742249	1196.923950	3479.271240	1483.639526	12.562312
761.058105	1137.760376	3659.037354	1481.364014	13.628160
761.374023	1083.147949	3517.955078	1495.017212	16.915888
761.689819	1087.698975	3513.404053	1481.364014	16.228891
762.005554	1101.352051	3599.874023	1520.047852	16.757740
762.321289	1121.831787	3486.097900	1520.047852	16.843115
762.636902	1046.739624	3593.047363	1540.527588	19.392313
762.952515	1108.178589	3622.629150	1481.364014	14.841628
763.268127	1112.729614	3661.312988	1517.772339	15.892857
763.583618	1101.352051	3740.956299	1611.068726	19.310345
763.899048	1105.903076	4080.008789	1574.660400	15.761287
764.214478	1140.035889	4687.572754	1747.599976	17.126364
764.529785	1074.045776	4912.849609	1752.151001	17.664494
764.845093	1117.280762	5012.972168	1781.732788	17.056074
765.160400	1190.097412	4862.788086	1902.335449	19.392813
765.475586	1055.841675	4726.256836	1890.957764	22.752634
765.790771	1069.494751	4705.776855	1818.141113	20.588236
766.105835	1128.658325	4453.194336	1784.008301	19.712524
766.420837	1103.627563	4357.622559	1752.151001	19.930067
766.735840	1133.209351	4205.162598	1688.436401	18.074074
767.050842	1108.178589	4016.294189	1695.262939	20.187792
767.365662	1151.413574	3950.304199	1688.436401	19.186989
767.680542	1078.596802	3688.619141	1711.191650	24.237143
767.995300	1108.178589	3688.619141	1690.711914	22.574957
768.309998	1110.454102	3636.282227	1583.762451	18.738739
768.624817	1103.627563	3649.935303	1647.477051	21.358358
768.939392	1192.372925	3390.525879	1640.650513	20.393377
769.254028	1080.872437	3627.180176	1626.997314	21.447718
769.568481	1135.484863	3492.924316	1581.486938	18.918921
769.882935	1092.250000	3517.955078	1661.130127	23.452156
770.197388	1099.076538	3397.352539	1617.895264	22.574259
770.511841	1115.005249	3351.842041	1620.170776	22.583923
770.826172	1096.801025	3306.331787	1640.650513	24.613800
771.140442	1023.984375	3299.505127	1645.201538	27.299999
771.454651	1117.280762	3190.280273	1574.660400	22.063663
771.768860	1119.556274	3215.310791	1656.579102	25.624321
772.082886	1101.352051	3267.647949	1674.783325	26.470589
772.397034	1092.250000	3283.576416	1592.864502	22.845272
772.711060	1060.392700	3197.106689	1592.864502	24.920126
773.025024	1058.117188	3258.545898	1595.140137	24.405378
773.338928	1128.658325	3244.892578	1597.415649	22.150539
773.652771	1140.035889	3149.320801	1570.109375	21.404306
773.966614	1142.311401	3008.238525	1690.711914	29.390244
774.280457	1092.250000	3021.891602	1633.823975	28.066040
774.594116	1121.831787	3019.616211	1613.344238	25.899277
774.907776	1130.933838	3003.687500	1608.793213	25.516403
775.221375	1112.729614	3026.442627	1597.415649	25.326998
775.534912	1078.596802	2978.656738	1533.701050	23.952099
775.848450	1169.617676	3083.330566	1615.619751	23.305590
776.161926	1112.729614	3042.371338	1645.201538	27.594341
776.475342	1115.005249	3035.544678	1538.252075	22.037914
776.788696	1101.352051	2910.391113	1667.956787	31.320757
777.101990	1049.015137	3008.238525	1601.966675	28.222996
777.415283	1121.831787	3065.126465	1576.935913	23.419203
777.728516	1167.342163	2937.697266	1597.415649	24.293064
778.041626	1174.168701	2951.350586	1517.772339	19.334185
778.354736	1158.240112	2851.227539	1565.558350	24.059141
778.667725	1053.566162	2967.279053	1626.997314	29.964325
778.980774	1153.689087	2953.625977	1608.793213	25.284449
779.293640	1151.413574	3021.891602	1642.926025	26.277370
779.606567	1128.658325	2949.074951	1604.242188	26.125002
779.919434	1101.352051	2873.982666	1538.252075	24.646986
780.232239	1101.352051	2889.911377	1576.935913	26.590332
780.544983	1142.311401	2921.768799	1704.365112	31.585680
780.857666	1096.801025	2880.809326	1599.691162	28.188778
781.170227	1133.209351	2819.370361	1606.517700	28.070175
781.482849	1078.596802	2801.166016	1572.384888	28.665791
781.795410	1117.280762	2705.594238	1656.579102	33.954151
782.107910	1108.178589	2921.768799	1551.905151	24.466749
782.420288	1167.342163	2905.840088	1640.650513	27.225132
782.732666	1151.413574	2719.247314	1624.721802	30.188675
783.044983	1210.577026	2712.420898	1588.313477	25.151512
783.357300	1105.903076	2753.380127	1592.864502	29.558010
783.669495	1135.484863	2682.839111	1645.201538	32.941174
783.981689	1121.831787	2712.420898	1522.323364	25.178820
784.293762	1233.332275	2737.451416	1615.619751	25.416037
784.605835	1099.076538	2726.073975	1492.741699	24.195807
784.917908	1162.791138	2696.492188	1581.486938	27.299702
785.229858	1167.342163	2587.267090	1522.323364	24.999998
785.541748	1185.546387	2712.420898	1581.486938	25.931440
785.853577	1140.035889	2635.052979	1485.915039	23.135464
786.165405	1146.862427	2616.848877	1522.323364	25.541796
786.477173	1074.045776	2548.583252	1563.282837	33.179020
786.788879	1085.423462	2696.492188	1563.282837	29.661016
787.100525	1115.005249	2676.012451	1465.435425	22.448978
787.412109	1135.484863	2641.879639	1501.843750	24.320244
787.723694	1126.382813	2653.257324	1522.323364	25.931440
788.035156	1074.045776	2660.083740	1558.731689	30.559540
788.346558	1103.627563	2732.900391	1440.404663	20.670393
788.658081	1128.658325	2646.430664	1595.140137	30.734636
788.969360	1096.801025	2776.135498	1608.793213	30.487803
789.280640	1128.658325	2851.227539	1642.926025	29.854691
789.591919	1135.484863	2828.472412	1631.548462	29.301077
789.903076	1096.801025	2867.156250	1561.007324	26.221083
790.214172	1133.209351	2958.177002	1554.180664	23.067329
790.525269	1049.015137	2807.992676	1513.221313	26.390682
790.836365	1108.178589	2666.910400	1631.548462	33.576645
791.147339	1096.801025	2764.757813	1554.180664	27.421553
791.458191	1137.760376	2598.644775	1565.558350	29.283493
791.769104	1124.107300	2569.062988	1626.997314	34.803143
792.079895	1083.147949	2553.134277	1583.762451	34.055725
792.390686	1210.577026	2553.134277	1561.007324	26.101702
792.701416	1199.199463	2580.440674	1535.976563	24.382208
793.012085	1169.617676	2537.205811	1508.670288	24.792011
793.322693	1142.311401	2430.256104	1520.047852	29.328623
793.633240	1130.933838	2498.521729	1451.782227	23.460897
793.943787	1194.648438	2471.215576	1558.731689	28.520494
794.254272	1153.689087	2507.624023	1497.292725	25.378149
794.564636	1137.760376	2503.072998	1495.017212	26.166670
794.875000	1074.045776	2525.828125	1490.466064	28.683382
795.185303	1153.689087	2425.705078	1472.261963	25.044724
795.495544	1089.974487	2400.674561	1542.803101	34.548607
795.805786	1103.627563	2473.491211	1608.793213	36.877075
796.115906	1149.138062	2516.726074	1554.180664	29.617296
796.426025	1105.903076	2446.184814	1542.803101	32.597626
796.736023	1071.770264	2635.052979	1586.037964	32.896652
797.045959	1078.596802	2682.839111	1647.477051	35.460991
797.355896	1071.770264	2528.103516	1545.078613	32.500004
797.665833	1121.831787	2616.848877	1674.783325	36.986301
797.975708	1169.617676	2625.950928	1597.415649	29.375006
798.285461	1110.454102	2482.593262	1563.282837	33.001663
798.595154	1092.250000	2425.705078	1583.762451	36.860069
798.904846	1094.525513	2471.215576	1504.119263	29.752068
799.214478	1128.658325	2425.705078	1572.384888	34.210529
799.524109	1210.577026	2450.735840	1538.252075	26.422024
799.833557	1128.658325	2446.184814	1488.190552	27.288425
800.143005	1185.546387	2441.633789	1513.221313	26.086952
800.452393	1108.178589	2418.878662	1588.313477	36.631943
800.761780	1135.484863	2407.500977	1485.915039	27.549192
801.071106	1174.168701	2471.215576	1483.639526	23.859648
801.380371	1076.321289	2393.847900	1497.292725	31.951645
801.689575	1137.760376	2346.062012	1540.527588	33.333332
801.998718	1117.280762	2493.970703	1517.772339	29.090906
802.307800	1169.617676	2311.929199	1472.261963	26.494024
802.616882	1108.178589	2380.194824	1426.751587	25.044727
802.925903	1128.658325	2389.296875	1513.221313	30.505413
803.234863	1174.168701	2346.062012	1510.945801	28.737864
803.543701	1099.076538	2377.919189	1444.955688	27.046263
803.852539	1108.178589	2316.480225	1460.884399	29.190212
804.161316	1062.668213	2275.520752	1497.292725	35.834900
804.470032	1117.280762	2264.143311	1483.639526	31.944435
804.778809	1119.556274	2257.316650	1483.639526	31.999994
805.087341	1133.209351	2361.990479	1492.741699	29.259266
805.395935	1192.372925	2361.990479	1515.496826	27.626457
805.704468	1060.392700	2412.052002	1515.496826	33.670033
806.012939	1101.352051	2261.867676	1565.558350	40.000004
806.321350	1183.270874	2316.480225	1495.017212	27.510038
806.629761	1117.280762	2359.715088	1604.242188	39.194138
806.938049	1099.076538	2380.194824	1469.986450	28.952044
807.246277	1101.352051	2402.949951	1522.323364	32.342655
807.554504	1069.494751	2270.969727	1545.078613	39.583336
807.862671	1135.484863	2325.582275	1561.007324	35.755264
808.170715	1165.066650	2421.154053	1520.047852	28.260868
808.478821	1169.617676	2302.827148	1472.261963	26.706827
808.786804	1137.760376	2398.398926	1538.252075	31.768955
809.094727	1140.035889	2402.949951	1504.119263	28.828833
809.402649	1146.862427	2346.062012	1495.017212	29.032263
809.710510	1146.862427	2316.480225	1449.506714	25.875486
810.018311	1176.444214	2148.091553	1424.476074	25.526943
810.326050	1167.342163	2200.428711	1454.057739	27.753296
810.633667	1153.689087	2209.530762	1454.057739	28.448267
810.941345	1142.311401	2236.836914	1449.506714	28.066528
811.248901	1119.556274	2161.744873	1458.608887	32.532749
811.556396	1242.434326	2261.867676	1419.924927	17.410711
811.863892	1153.689087	2189.051025	1408.547363	24.615379
812.171326	1094.525513	2123.060791	1483.639526	37.831860
812.478699	1058.117188	2204.979736	1481.364014	36.904755
812.786011	1099.076538	2207.255127	1401.720825	27.310064
813.093262	1194.648438	2150.367188	1394.894287	20.952383
813.400391	1080.872437	2111.683350	1397.169800	30.684324
813.707642	1135.484863	2209.530762	1474.537476	31.567795
814.014709	1133.209351	2118.509766	1454.057739	32.563507
814.321716	1126.382813	2179.948975	1431.302612	28.941685
814.628723	1119.556274	2127.612061	1376.690063	25.507893
814.935669	1071.770264	2152.642578	1392.618774	29.684219
815.242554	1133.209351	2111.683350	1388.067749	26.046516
815.549438	1089.974487	2152.642578	1460.884399	34.903645
815.856201	1174.168701	2082.101563	1413.098389	26.315788
816.162964	1055.841675	2093.479248	1401.720825	33.333328
816.469604	1167.342163	2136.714111	1533.701050	37.793427
816.776184	1158.240112	2113.958740	1472.261963	32.857143
817.082825	1119.556274	2166.295898	1433.578125	29.999996
817.389343	1192.372925	2166.295898	1408.547363	22.196257
817.695801	1074.045776	2072.999512	1424.476074	35.079731
818.002197	1080.872437	2225.459229	1397.169800	27.634197
818.308533	1124.107300	2170.846924	1435.853638	29.782606
818.614868	1135.484863	2138.989502	1492.741699	35.600914
818.921143	1210.577026	2207.255127	1417.649414	20.776255
819.227356	1128.658325	2195.877686	1449.506714	30.063959
819.533447	1080.872437	2218.632813	1451.782227	32.599991
819.839539	1110.454102	2314.204590	1529.150024	34.782616
820.145569	1099.076538	2407.500977	1520.047852	32.173912
820.451538	1128.658325	2387.021240	1520.047852	31.103073
820.757568	1069.494751	2532.654541	1469.986450	27.371700
821.063416	1121.831787	2678.288086	1565.558350	28.508772
821.369263	1130.933838	2819.370361	1636.099487	29.919138
821.675049	1140.035889	2764.757813	1642.926025	30.952381
821.980713	1103.627563	3033.269287	1704.365112	31.132076
822.286438	1130.933838	3308.607178	1813.590088	31.347963
822.592102	983.024963	4059.529053	1991.080688	32.766273
822.897583	1128.658325	5579.577148	2687.390137	35.020451
823.203125	1142.311401	8073.547852	3315.433838	31.352596
823.508545	1085.423462	9791.566406	3852.456787	31.782539
823.813965	1165.066650	10553.865234	3938.926514	29.544353
824.119263	1171.893188	9673.239258	3781.915527	30.701286
824.424622	1096.801025	8196.425781	3472.444824	33.461540
824.729858	1155.964600	6963.093750	2946.799316	30.838556
825.035095	1121.831787	6105.222168	2771.584229	33.105019
825.340149	1069.494751	5529.515625	2509.899414	32.295918
825.645264	1151.413574	4956.084473	2377.919189	32.236839
825.950256	1105.903076	4667.093262	2166.295898	29.776360
826.255310	1171.893188	4225.642090	2050.244141	28.763037
826.560242	1171.893188	4059.529053	2018.386963	29.314425
826.865112	1062.668213	3932.099854	1890.957764	28.865980
827.169922	1103.627563	3765.986816	1902.335449	30.000002
827.474670	1092.250000	3836.528076	1934.192627	30.679932
827.779419	1233.332275	4273.428223	2093.479248	28.293415
828.084045	1060.392700	4735.358887	2189.051025	30.712072
828.388672	1149.138062	5229.146973	2398.398926	30.619072
828.693176	1169.617676	5258.728516	2387.021240	29.771841
828.997681	1112.729614	4815.001953	2148.091553	27.965580
829.302124	1208.301514	4077.733398	2057.070801	29.579699
829.606567	1096.801025	3750.058350	1906.886475	30.531733
829.910828	1094.525513	3502.026611	1733.946899	26.559549
830.215149	1096.801025	3183.453613	1754.426514	31.515812
830.519348	1162.791138	3033.269287	1681.609863	27.737225
830.823547	1149.138062	2858.054199	1590.588989	25.832216
831.127686	1144.586914	2691.941162	1674.783325	34.264709
831.431763	1067.219238	2603.195801	1581.486938	33.481480
831.735779	1060.392700	2493.970703	1633.823975	40.000004
832.039734	1115.005249	2396.123291	1460.884399	26.998226
832.343628	1119.556274	2393.847900	1406.271851	22.499996
832.647461	1112.729614	2357.439453	1501.843750	31.261433
832.951233	1037.637451	2389.296875	1490.466064	33.501678
833.255127	1151.413574	2387.021240	1506.394775	28.729280
833.558777	1133.209351	2348.337402	1463.159912	27.153563
833.862366	1124.107300	2391.572266	1570.109375	35.188515
834.165955	1119.556274	2619.124512	1574.660400	30.349010
834.469482	1146.862427	3015.064941	1647.477051	26.796593
834.773010	1187.821899	3431.485352	1834.069824	28.803246
835.076416	1176.444214	3659.037354	1865.927002	27.772684
835.379822	1210.577026	3643.108887	1843.171875	26.005615
835.683105	1146.862427	3408.730225	1840.896362	30.684109
835.986389	1174.168701	3203.933350	1731.671387	27.466372
836.289612	1185.546387	2914.942139	1697.538574	29.605265
836.592773	1155.964600	2746.553711	1599.691162	27.896996
836.895874	1103.627563	2598.644775	1495.017212	26.179607
837.198914	1171.893188	2541.756836	1556.456177	28.073086
837.501892	1176.444214	2380.194824	1499.568237	26.843103
837.804871	1115.005249	2355.164063	1456.333252	27.522926
838.107666	1140.035889	2243.663574	1508.670288	33.402061
838.410583	1112.729614	2118.509766	1394.894287	28.054310
838.713379	1055.841675	2138.989502	1356.210449	27.731096
839.016052	1124.107300	2111.683350	1333.455200	21.198154
839.318787	1083.147949	1913.713013	1378.965576	35.616432
839.621338	1117.280762	1975.152100	1381.241089	30.769220
839.923889	1110.454102	1847.722900	1292.495850	24.691368
840.226440	1146.862427	1977.427612	1413.098389	32.054794
840.528931	1135.484863	1970.601074	1326.628662	22.888287
840.831299	1142.311401	2136.714111	1413.098389	27.231119
841.133606	1187.821899	2168.571289	1369.863525	18.561483
841.435913	1176.444214	2161.744873	1374.414551	20.092379
841.738220	1119.556274	2104.856689	1360.761475	24.480371
842.040405	1185.546387	2125.336426	1340.281738	16.464886
842.342529	1167.342163	2054.795166	1301.597900	15.128208
842.644592	1053.566162	1879.580200	1290.220337	28.650139
842.946594	1153.689087	1852.273926	1315.250977	23.127026
843.248596	1130.933838	1895.508789	1326.628662	25.595243
843.550598	1137.760376	1872.753662	1388.067749	34.055737
843.852478	1133.209351	1809.039063	1365.312500	34.343437
844.154236	1130.933838	1849.998413	1319.802124	26.265831
844.455994	1087.698975	1718.018188	1272.016113	29.241873
844.757690	1046.739624	1731.671387	1299.322388	36.877071
845.059326	1103.627563	1738.497925	1390.343262	45.161297
845.360962	1074.045776	1706.640625	1272.016113	31.294966
845.662476	1128.658325	1697.538574	1253.812012	22.000006
845.963989	1062.668213	1692.987427	1315.250977	40.072197
846.265381	1115.005249	1702.089600	1294.771362	30.620152
846.566772	1119.556274	1586.037964	1258.363037	29.756102
846.868042	1060.392700	1642.926025	1258.363037	33.984379
847.169373	1201.474976	1722.569214	1206.026001	0.873359
847.470581	1187.821899	1663.405762	1199.199463	2.392336
847.771729	1094.525513	1656.579102	1235.607788	25.101213
848.072815	1140.035889	1595.140137	1149.138062	2.000019
848.373901	1115.005249	1570.109375	1242.434326	27.999983
848.674866	1126.382813	1545.078613	1242.434326	27.717382
848.975891	1124.107300	1601.966675	1260.638550	28.571428
849.276794	1149.138062	1624.721802	1224.230225	15.789473
849.577637	1053.566162	1595.140137	1272.016113	40.336124
849.878357	1099.076538	1570.109375	1233.332275	28.502417
850.179077	1140.035889	1565.558350	1265.189575	29.411770
850.479736	1110.454102	1631.548462	1301.597900	36.681225
850.780396	1130.933838	1595.140137	1210.577026	17.156853
851.080994	1144.586914	1581.486938	1240.158813	21.875004
851.381470	1094.525513	1604.242188	1233.332275	27.232141
851.681946	1074.045776	1510.945801	1251.536499	40.625019
851.982361	1140.035889	1574.660400	1278.842651	31.937168
852.282715	1162.791138	1581.486938	1192.372925	7.065222
852.583008	1121.831787	1647.477051	1187.821899	12.554115
852.883240	1190.097412	1631.548462	1231.056763	9.278345
853.183411	1153.689087	1574.660400	1226.505737	17.297295
853.483521	1153.689087	1545.078613	1183.270874	7.558145
853.783630	1092.250000	1617.895264	1244.709839	29.004320
854.083679	1210.577026	1567.833862	1249.260864	10.828019
854.383667	1099.076538	1615.619751	1203.750488	20.264317
854.683533	1174.168701	1535.976563	1276.567139	28.301884
854.983337	1085.423462	1586.037964	1212.852539	25.454533
855.283203	1137.760376	1565.558350	1287.944824	35.106396
855.582886	1158.240112	1522.323364	1242.434326	23.124990
855.882629	1096.801025	1549.629639	1208.301514	24.623110
856.182312	1058.117188	1513.221313	1256.087524	43.500008
856.481873	1064.943726	1565.558350	1242.434326	35.454536
856.781372	1121.831787	1465.435425	1162.791138	11.920523
857.080872	1149.138062	1447.231201	1183.270874	11.450385
857.380310	1112.729614	1556.456177	1228.781250	26.153862
857.679688	1080.872437	1545.078613	1224.230225	30.882353
857.979004	1085.423462	1581.486938	1265.189575	36.238529
858.278259	1076.321289	1581.486938	1240.158813	32.432434
858.577454	1130.933838	1533.701050	1199.199463	16.949152
858.876648	1144.586914	1522.323364	1178.719727	9.036145
859.175720	1146.862427	1588.313477	1146.862427	0.000000
859.474792	1167.342163	1510.945801	1224.230225	16.556303
859.773743	1135.484863	1506.394775	1235.607788	26.993866
860.072693	1187.821899	1526.874512	1199.199463	3.355693
860.371521	1167.342163	1572.384888	1237.883301	17.415728
860.670349	1144.586914	1506.394775	1196.923950	14.465423
860.969116	1219.679199	1517.772339	1206.026001	-4.580179
861.267883	1126.382813	1495.017212	1224.230225	26.543213
861.566589	1160.515625	1501.843750	1260.638550	29.333336
861.865112	1146.862427	1488.190552	1212.852539	19.333336
862.163635	1103.627563	1617.895264	1180.995239	15.044242
862.462158	1074.045776	1417.649414	1176.444214	29.801325
862.760620	1128.658325	1513.221313	1192.372925	16.568052
863.059021	1071.770264	1565.558350	1183.270874	22.580660
863.357361	1101.352051	1495.017212	1171.893188	17.919071
863.655640	1142.311401	1538.252075	1215.128052	18.390799
863.953857	1174.168701	1549.629639	1203.750488	7.878792
864.251953	1126.382813	1565.558350	1212.852539	19.689104
864.550110	1194.648438	1429.027100	1219.679199	10.679625
864.848206	1158.240112	1510.945801	1260.638550	29.032261
865.146179	1101.352051	1515.496826	1215.128052	27.472519
865.444092	1126.382813	1547.354126	1180.995239	12.972957
865.741943	1101.352051	1524.598877	1194.648438	22.043020
866.039795	1124.107300	1567.833862	1190.097412	14.871797
866.337646	1153.689087	1463.159912	1226.505737	23.529408
866.635376	1133.209351	1558.731689	1283.393677	35.294109
866.933044	1064.943726	1490.466064	1256.087524	44.919804
867.230652	1110.454102	1574.660400	1231.056763	25.980402
867.528198	1121.831787	1561.007324	1199.199463	17.616571
867.825745	1094.525513	1551.905151	1142.311401	10.447752
868.123230	1146.862427	1465.435425	1292.495850	45.714302
868.420593	1096.801025	1474.537476	1215.128052	31.325287
868.717896	1174.168701	1526.874512	1190.097412	4.516147
869.015198	1085.423462	1465.435425	1256.087524	44.910183
869.312439	1119.556274	1474.537476	1217.403687	27.564112
869.609619	1149.138062	1526.874512	1176.444214	7.228890
869.906738	1155.964600	1442.680176	1272.016113	40.476181
870.203796	1039.912964	1433.578125	1287.944824	63.005795
870.500854	1128.658325	1508.670288	1176.444214	12.574838
870.797791	1110.454102	1542.803101	1187.821899	17.894756
871.094666	1135.484863	1526.874512	1228.781250	23.837214
871.391602	1094.525513	1447.231201	1221.954712	36.129047
871.688293	1124.107300	1485.915039	1151.413574	7.547178
871.985107	1153.689087	1538.252075	1224.230225	18.343195
872.281738	1146.862427	1576.935913	1196.923950	11.640225
872.578369	1105.903076	1490.466064	1208.301514	26.627222
872.874939	1128.658325	1506.394775	1185.546387	15.060252
873.171509	1153.689087	1485.915039	1244.709839	27.397243
873.467957	1112.729614	1479.088501	1242.434326	35.403728
873.764343	1044.463989	1561.007324	1237.883301	37.444935
874.060669	1149.138062	1524.598877	1153.689087	1.212117
874.356995	1067.219238	1456.333252	1215.128052	38.011692
874.653198	1085.423462	1444.955688	1287.944824	56.329128
874.949463	1060.392700	1476.812988	1208.301514	35.519119
875.245544	1137.760376	1488.190552	1272.016113	38.311695
875.541626	1167.342163	1508.670288	1192.372925	7.333343
875.837646	1192.372925	1549.629639	1217.403687	7.006380
876.133606	1201.474976	1508.670288	1233.332275	10.370373
876.429565	1199.199463	1510.945801	1194.648438	-1.459849
876.725403	1110.454102	1533.701050	1190.097412	18.817221
877.021179	1153.689087	1579.211426	1158.240112	1.069515
877.316956	1140.035889	1490.466064	1231.056763	25.974039
877.612610	1110.454102	1563.282837	1233.332275	27.135683
877.908203	1105.903076	1533.701050	1137.760376	7.446809
878.203857	1067.219238	1558.731689	1240.158813	35.185188
878.499390	1105.903076	1542.803101	1251.536499	33.333351
878.794800	1128.658325	1476.812988	1203.750488	21.568623
879.090271	1089.974487	1613.344238	1203.750488	21.739124
879.385559	1110.454102	1504.119263	1251.536499	35.838173
879.680847	1051.290649	1692.987427	1242.434326	29.787228
879.976196	1083.147949	1672.507813	1262.914063	30.501926
880.271301	1137.760376	1758.977539	1165.066650	4.395608
880.566467	1137.760376	1736.222412	1265.189575	21.292780
880.861572	1146.862427	1770.355225	1415.373901	43.065689
881.156555	1103.627563	2018.386963	1360.761475	28.109459
881.451477	1151.413574	2145.816162	1394.894287	24.485125
881.746460	1087.698975	2666.910400	1572.384888	30.691641
882.041321	1176.444214	3390.525879	1777.181763	27.132586
882.336121	1185.546387	4084.559814	1927.366089	25.588696
882.630798	1128.658325	4689.848145	2150.367188	28.690098
882.925537	1069.494751	4637.511230	2166.295898	30.739799
883.220215	1146.862427	4387.204102	2164.020264	31.390450
883.514771	1085.423462	4196.060547	1997.907227	29.334303
883.809326	1080.872437	3827.426025	1938.743774	31.234465
884.103760	1142.311401	3590.771729	1777.181763	25.929369
884.398132	1108.178589	3408.730225	1822.692139	31.058355
884.692505	1140.035889	3144.769775	1777.181763	31.782068
884.986816	1130.933838	2949.074951	1674.783325	29.912392
885.281067	1078.596802	2844.401123	1649.752563	32.345360
885.575256	1083.147949	2660.083740	1590.588989	32.178928
885.869385	1149.138062	2393.847900	1504.119263	28.519194
886.163452	1140.035889	2291.449463	1490.466064	30.434778
886.457458	1094.525513	2095.754639	1378.965576	28.409088
886.751465	1169.617676	2102.581299	1388.067749	23.414640
887.045410	1203.750488	2007.009399	1356.210449	18.980177
887.339233	1153.689087	1897.784302	1322.077637	22.629974
887.632996	1190.097412	1774.906250	1310.699951	20.622557
887.926758	1119.556274	1722.569214	1272.016113	25.283012
888.220398	1142.311401	1774.906250	1285.669312	22.661884
888.514099	1144.586914	1663.405762	1281.118164	26.315784
888.807678	1233.332275	1711.191650	1294.771362	12.857148
889.101196	1146.862427	1611.068726	1221.954712	16.176491
889.394653	1117.280762	1611.068726	1224.230225	21.658985
889.688049	1096.801025	1540.527588	1231.056763	30.256413
889.981384	1142.311401	1583.762451	1217.403687	17.010330
890.274719	1178.719727	1481.364014	1226.505737	15.789497
890.567932	1183.270874	1488.190552	1215.128052	10.447728
>>>>>End Processed Spectral Data<<<<<
