Jaz Data File
++++++++++++++++++++++++++++++++++++
Date: Wed Feb 07 06:44:29 2024
User: jaz
Dark Spectrum Present: Yes
Reference Spectrum Present: Yes
Processed Spectrum Present: Yes
Spectrometers: JAZA3692
Integration Time (usec): 40000 (JAZA3692)
Spectra Averaged: 1 (JAZA3692)
Boxcar Smoothing: 0 (JAZA3692)
Correct for Electrical Dark: No (JAZA3692)
Strobe/Lamp Enabled: Yes (JAZA3692)
Correct for Detector Non-linearity: No (JAZA3692)
Correct for Stray Light: No (JAZA3692)
Number of Pixels in Processed Spectrum: 2048
>>>>>Begin Processed Spectral Data<<<<<
W	D	R	S	P
190.244385	0.000000	0.000000	0.000000	0.000000
190.627136	0.000000	0.000000	0.000000	0.000000
191.009842	1083.147949	1133.209351	1085.423462	4.545444
191.392532	1112.729614	1119.556274	1128.658325	233.330948
191.775177	1108.178589	1076.321289	1085.423462	71.428299
192.157791	1074.045776	1146.862427	1042.188477	-43.750019
192.540390	1196.923950	1101.352051	1108.178589	92.857170
192.922943	1142.311401	1117.280762	1064.943726	309.091888
193.305481	1085.423462	1274.291626	1187.821899	54.216885
193.687958	1201.474976	1078.596802	1178.719727	18.518545
194.070419	1180.995239	1158.240112	1115.005249	290.000549
194.452866	1130.933838	1167.342163	1067.219238	-175.000076
194.835251	1140.035889	1199.199463	1083.147949	-96.153656
195.217621	1155.964600	1133.209351	1055.841675	439.999237
195.599960	1092.250000	1165.066650	1142.311401	68.749939
195.982254	1162.791138	1099.076538	1080.872437	128.571320
196.364517	1101.352051	1133.209351	1149.138062	150.000198
196.746750	1085.423462	1192.372925	1099.076538	12.765914
197.128952	1162.791138	1133.209351	1110.454102	176.923172
197.511139	1165.066650	1110.454102	1146.862427	33.333408
197.893280	1151.413574	1174.168701	1226.505737	330.001068
198.275391	1110.454102	1140.035889	1110.454102	0.000000
198.657471	1199.199463	1171.893188	1071.770264	466.666382
199.039520	1146.862427	1137.760376	1171.893188	-275.001343
199.421539	1180.995239	1174.168701	1124.107300	833.335144
199.803513	1124.107300	1119.556274	1153.689087	-650.002686
200.185471	1206.026001	1137.760376	1162.791138	63.333286
200.567383	1117.280762	1180.995239	1067.219238	-78.571663
200.949265	1126.382813	1158.240112	1124.107300	-7.142830
201.331131	1165.066650	1208.301514	1067.219238	-226.315994
201.712967	1183.270874	1144.586914	1112.729614	182.352737
202.094742	1124.107300	1169.617676	1058.117188	-145.000153
202.476517	1160.515625	1149.138062	1133.209351	240.001068
202.858231	1153.689087	1133.209351	1117.280762	177.777313
203.239944	1165.066650	1149.138062	1028.535400	857.145935
203.621582	1171.893188	1137.760376	1119.556274	153.333145
204.003235	1174.168701	1140.035889	1092.250000	239.999863
204.384827	1153.689087	1203.750488	1074.045776	-159.091248
204.766388	1174.168701	1092.250000	1087.698975	105.555542
205.147934	1133.209351	1228.781250	1055.841675	-80.952324
205.529449	1060.392700	1231.056763	1074.045776	7.999971
205.910904	1135.484863	1135.484863	1046.739624	0.000000
206.292343	1167.342163	1126.382813	1069.494751	238.889069
206.673767	1169.617676	1149.138062	1112.729614	277.778961
207.055115	1185.546387	1231.056763	1105.903076	-175.000336
207.436462	1112.729614	1162.791138	1071.770264	-81.818024
207.817780	1137.760376	1171.893188	1092.250000	-133.333221
208.199051	1126.382813	1158.240112	1108.178589	-57.143021
208.580307	1174.168701	1142.311401	1146.862427	85.714340
208.961517	1112.729614	1115.005249	1180.995239	2999.849854
209.342712	1051.290649	1130.933838	1042.188477	-11.428690
209.723846	1117.280762	1121.831787	1176.444214	1300.002686
210.104965	1160.515625	1151.413574	1074.045776	950.004028
210.486069	1099.076538	1149.138062	1103.627563	9.090865
210.867111	1140.035889	1162.791138	1149.138062	40.000320
211.248123	1137.760376	1183.270874	1087.698975	-109.999680
211.629120	1167.342163	1185.546387	1105.903076	-337.499084
212.010071	1121.831787	1217.403687	1105.903076	-16.666731
212.390991	1165.066650	1146.862427	1165.066650	-0.000000
212.771881	1117.280762	1192.372925	1119.556274	3.030293
213.152756	1110.454102	1167.342163	1069.494751	-71.999908
213.533569	1149.138062	1124.107300	1060.392700	354.545197
213.914368	1142.311401	1108.178589	1124.107300	53.333141
214.295135	1180.995239	1099.076538	1080.872437	122.222153
214.675858	1140.035889	1185.546387	1049.015137	-199.999466
215.056549	1130.933838	1094.525513	1119.556274	31.249895
215.437225	1119.556274	1115.005249	1149.138062	-650.002686
215.817841	1171.893188	1217.403687	1135.484863	-79.999840
216.198441	1190.097412	1149.138062	1105.903076	205.555832
216.579025	1190.097412	1160.515625	1108.178589	276.923187
216.959549	1158.240112	1196.923950	1083.147949	-194.117661
217.340057	1135.484863	1151.413574	1046.739624	-557.140137
217.720535	1124.107300	1135.484863	1117.280762	-60.000000
218.100967	1144.586914	1194.648438	1103.627563	-81.818024
218.481369	1153.689087	1160.515625	1187.821899	500.001801
218.861740	1137.760376	1212.852539	1142.311401	6.060586
219.242065	1094.525513	1199.199463	1105.903076	10.869527
219.622391	1099.076538	1199.199463	1160.515625	61.363655
220.002670	1099.076538	1165.066650	1149.138062	75.862160
220.382919	1089.974487	1251.536499	1074.045776	-9.859193
220.763123	1099.076538	1171.893188	1049.015137	-68.749939
221.143295	1146.862427	1192.372925	1124.107300	-49.999733
221.523453	1112.729614	1146.862427	1124.107300	33.333572
221.903549	1096.801025	1199.199463	1055.841675	-39.999977
222.283630	1108.178589	1165.066650	1105.903076	-3.999983
222.663696	1140.035889	1144.586914	1071.770264	-1500.005371
223.043701	1169.617676	1224.230225	1089.974487	-145.833130
223.423676	1178.719727	1130.933838	1162.791138	33.333248
223.803635	1135.484863	1092.250000	1099.076538	84.210571
224.183548	1121.831787	1203.750488	1067.219238	-66.666763
224.563431	1124.107300	1187.821899	1046.739624	-121.428490
224.943283	1215.128052	1265.189575	1110.454102	-209.090622
225.323105	1074.045776	1178.719727	1058.117188	-15.217338
225.702881	1133.209351	1221.954712	1053.566162	-89.743492
226.082642	1080.872437	1140.035889	1099.076538	30.769167
226.462357	1089.974487	1151.413574	1053.566162	-59.259224
226.842041	1103.627563	1153.689087	1110.454102	13.636297
227.221695	1178.719727	1208.301514	1110.454102	-230.769104
227.601318	1096.801025	1212.852539	1142.311401	39.215668
227.980911	1130.933838	1240.158813	1064.943726	-60.416687
228.360474	1083.147949	1171.893188	1094.525513	12.820477
228.739990	1096.801025	1210.577026	1042.188477	-48.000061
229.119476	1121.831787	1228.781250	1089.974487	-29.787247
229.498932	1069.494751	1240.158813	1130.933838	36.000015
229.878372	1067.219238	1331.179688	1144.586914	29.310329
230.257736	1153.689087	1358.485962	1046.739624	-52.222214
230.637115	1087.698975	1308.424438	1110.454102	10.309244
231.016449	1135.484863	1312.975464	1083.147949	-29.487146
231.395737	1096.801025	1237.883301	1078.596802	-12.903268
231.774994	1124.107300	1215.128052	1087.698975	-40.000027
232.154221	1140.035889	1303.873413	1112.729614	-16.666679
232.533417	1142.311401	1342.557251	1055.841675	-43.181782
232.912582	1128.658325	1231.056763	1155.964600	26.666691
233.291702	1151.413574	1306.148926	1096.801025	-35.294163
233.670792	1155.964600	1231.056763	1144.586914	-15.151628
234.049866	1158.240112	1217.403687	1135.484863	-38.461586
234.428894	1096.801025	1144.586914	1096.801025	0.000000
234.807892	1176.444214	1226.505737	1146.862427	-59.090866
235.186874	1126.382813	1274.291626	1105.903076	-13.846190
235.565781	1101.352051	1244.709839	1003.504700	-68.253952
235.944687	1126.382813	1274.291626	1076.321289	-33.846207
236.323547	1146.862427	1303.873413	1055.841675	-57.970943
236.702377	1115.005249	1256.087524	1092.250000	-16.129063
237.081177	1124.107300	1258.363037	1121.831787	-1.694909
237.459946	1215.128052	1290.220337	1087.698975	-169.696625
237.838669	1233.332275	1231.056763	1112.729614	5300.021484
238.217361	1206.026001	1274.291626	1169.617676	-53.333321
238.596039	1119.556274	1342.557251	1121.831787	1.020405
238.974670	1119.556274	1240.158813	1121.831787	1.886787
239.353271	1137.760376	1353.934937	1074.045776	-29.473680
239.731842	1149.138062	1253.812012	1117.280762	-30.434793
240.110367	1155.964600	1376.690063	1099.076538	-25.773220
240.488876	1162.791138	1303.873413	1083.147949	-56.451591
240.867340	1060.392700	1424.476074	1135.484863	20.624990
241.245789	1146.862427	1356.210449	1023.984375	-58.695587
241.624176	1083.147949	1406.271851	1130.933838	14.788720
242.002548	1153.689087	1415.373901	1149.138062	-1.739125
242.380890	1121.831787	1447.231201	1233.332275	34.265732
242.759186	1046.739624	1542.803101	1067.219238	4.128426
243.137451	1067.219238	1699.814087	1117.280762	7.913679
243.515686	1169.617676	1699.814087	1149.138062	-3.862647
243.893890	1151.413574	1652.028076	1212.852539	12.272710
244.272049	1115.005249	1670.232300	1142.311401	4.918015
244.650192	1105.903076	1588.313477	1130.933838	5.188686
245.028290	1130.933838	1604.242188	1112.729614	-3.846166
245.406357	1130.933838	1558.731689	1121.831787	-2.127652
245.784393	1119.556274	1570.109375	1167.342163	10.606050
246.162384	1206.026001	1570.109375	1160.515625	-12.499988
246.540359	1162.791138	1604.242188	1158.240112	-1.030924
246.918289	1137.760376	1626.997314	1190.097412	10.697687
247.296204	1196.923950	1770.355225	1142.311401	-9.523818
247.674057	1153.689087	2018.386963	1160.515625	0.789471
248.051895	1187.821899	2195.877686	1219.679199	3.160271
248.429703	1226.505737	2168.571289	1142.311401	-8.937205
248.807465	1153.689087	2161.744873	1219.679199	6.546276
249.185196	1155.964600	2045.693237	1185.546387	3.324810
249.562897	1108.178589	1902.335449	1153.689087	5.730669
249.940567	1101.352051	1961.498901	1144.586914	5.026452
250.318192	1160.515625	1781.732788	1105.903076	-8.791217
250.695801	1144.586914	1695.262939	1169.617676	4.545461
251.073349	1096.801025	1647.477051	1201.474976	19.008263
251.450882	1160.515625	1529.150024	1146.862427	-3.703723
251.828400	1167.342163	1556.456177	1215.128052	12.280691
252.205872	1101.352051	1683.885376	1160.515625	10.156256
252.583313	1110.454102	1736.222412	1231.056763	19.272734
252.960693	1158.240112	1654.303589	1176.444214	3.669712
253.338074	1128.658325	1834.069824	1140.035889	1.612897
253.715408	1140.035889	1804.488037	1130.933838	-1.369858
254.092682	1176.444214	1890.957764	1167.342163	-1.273881
254.469955	1185.546387	1695.262939	1146.862427	-7.589308
254.847198	1085.423462	1624.721802	1171.893188	16.033747
255.224365	1023.984375	1638.375000	1176.444214	24.814806
255.601563	1101.352051	1629.272949	1089.974487	-2.155164
255.978683	1110.454102	1531.425537	1071.770264	-9.189183
256.355743	1112.729614	1542.803101	1183.270874	16.402142
256.732819	1146.862427	1556.456177	1180.995239	8.333333
257.109894	1101.352051	1604.242188	1235.607788	26.696833
257.486877	1053.566162	1677.058838	1144.586914	14.598528
257.863831	1099.076538	1690.711914	1119.556274	3.461547
258.240753	1112.729614	1686.160889	1183.270874	12.301606
258.617645	1110.454102	1713.467163	1199.199463	14.716989
258.994507	1101.352051	1770.355225	1153.689087	7.823137
259.371307	1137.760376	1918.264038	1144.586914	0.874632
259.748108	1074.045776	1972.876587	1162.791138	9.873423
260.124878	1117.280762	2102.581299	1251.536499	13.625867
260.501617	1108.178589	2396.123291	1187.821899	6.183753
260.878296	1135.484863	2650.981689	1246.985352	7.357356
261.254944	1117.280762	2644.155273	1267.465088	9.836062
261.631561	1151.413574	2610.022461	1210.577026	4.056156
262.008179	1187.821899	2336.959961	1256.087524	5.940594
262.384735	1142.311401	2182.224365	1169.617676	2.625823
262.761261	1142.311401	1966.049927	1190.097412	5.801114
263.137695	1151.413574	1970.601074	1174.168701	2.777768
263.514191	1171.893188	2000.182739	1146.862427	-3.021982
263.890594	1080.872437	1929.641602	1124.107300	5.093831
264.267029	1121.831787	1877.304688	1126.382813	0.602408
264.643341	1044.463989	1879.580200	1169.617676	14.986380
265.019653	1060.392700	1886.406738	1115.005249	6.611577
265.395935	1103.627563	1854.549438	1176.444214	9.696967
265.772217	1158.240112	1815.865601	1162.791138	0.692039
266.148407	1083.147949	1781.732788	1126.382813	6.188921
266.524597	1096.801025	1959.223389	1199.199463	11.873351
266.900726	1160.515625	1979.703125	1153.689087	-0.833330
267.276855	1190.097412	2072.999512	1203.750488	1.546386
267.652924	1178.719727	1997.907227	1201.474976	2.777783
268.028992	1112.729614	2109.407715	1178.719727	6.621006
268.404999	1183.270874	2013.835938	1115.005249	-8.219178
268.781006	1124.107300	2200.428711	1158.240112	3.171247
269.156921	1183.270874	2070.723877	1096.801025	-9.743597
269.532837	1142.311401	2054.795166	1160.515625	1.995019
269.908661	1210.577026	2091.203613	1240.158813	3.359175
270.284546	1092.250000	2050.244141	1251.536499	16.627085
270.660339	1144.586914	2120.785400	1194.648438	5.128211
271.036133	1126.382813	2164.020264	1233.332275	10.307016
271.411835	1146.862427	2132.163086	1244.709839	9.930717
271.787537	1101.352051	2232.285889	1233.332275	11.670022
272.163239	1049.015137	2503.072998	1219.679199	11.737089
272.538849	1174.168701	2655.532715	1260.638550	5.837178
272.914459	1158.240112	2544.032227	1171.893188	0.985218
273.290070	1149.138062	2468.940186	1171.893188	1.724132
273.665588	1101.352051	2245.938965	1290.220337	16.500999
274.041046	1094.525513	2377.919189	1235.607788	10.992908
274.416565	1028.535400	2314.204590	1167.342163	10.796460
274.791962	1051.290649	2270.969727	1180.995239	10.634321
275.167389	1155.964600	2227.734863	1165.066650	0.849254
275.542755	1108.178589	2175.397949	1221.954712	10.660988
275.918060	1121.831787	2241.387939	1192.372925	6.300813
276.293365	1121.831787	2280.071777	1140.035889	1.571704
276.668640	1160.515625	2355.164063	1171.893188	0.952378
277.043854	1099.076538	2277.796387	1135.484863	3.088802
277.419037	1144.586914	2402.949951	1185.546387	3.254981
277.794189	1206.026001	2380.194824	1262.914063	4.844965
278.169312	1144.586914	2309.653564	1224.230225	6.835945
278.544373	1167.342163	2264.143311	1224.230225	5.186725
278.919464	1149.138062	2309.653564	1276.567139	10.980386
279.294464	1096.801025	2371.092773	1226.505737	10.178573
279.669464	1153.689087	2332.408936	1167.342163	1.158297
280.044403	1053.566162	2366.541748	1206.026001	11.611780
280.419312	1078.596802	2361.990479	1256.087524	13.829796
280.794189	1110.454102	2277.796387	1174.168701	5.458091
281.169037	1144.586914	2366.541748	1217.403687	5.959040
281.543854	1158.240112	2334.684326	1244.709839	7.350091
281.918671	1135.484863	2471.215576	1203.750488	5.110733
282.293365	1126.382813	2575.889648	1319.802124	13.343801
282.668091	1064.943726	2660.083740	1244.709839	11.269613
283.042786	1124.107300	2883.084961	1251.536499	7.244503
283.417419	1142.311401	2778.410889	1178.719727	2.225312
283.792053	1187.821899	2562.236328	1221.954712	2.483444
284.166595	1119.556274	2689.665527	1299.322388	11.449274
284.541138	1133.209351	2628.226563	1212.852539	5.327242
284.915619	1096.801025	2614.573486	1235.607788	9.145427
285.290100	1137.760376	2801.166016	1242.434326	6.292749
285.664520	1137.760376	2739.727051	1283.393677	9.090907
286.038940	1105.903076	2789.788574	1278.842651	10.270269
286.413300	1144.586914	2828.472412	1267.465088	7.297300
286.787628	1028.535400	2926.319824	1210.577026	9.592323
287.161896	1174.168701	2953.625977	1228.781250	3.069057
287.536194	1140.035889	3046.922363	1281.118164	7.398567
287.910400	1064.943726	2853.503174	1294.771362	12.849874
288.284607	1121.831787	2730.625000	1276.567139	9.618101
288.658752	1121.831787	2662.359375	1258.363037	8.862629
289.032867	1140.035889	2562.236328	1262.914063	8.640004
289.406921	1080.872437	2678.288086	1319.802124	14.957265
289.781006	1144.586914	2687.390137	1283.393677	8.997049
290.154999	1135.484863	2716.971924	1246.985352	7.050357
290.529022	1151.413574	2844.401123	1249.260864	5.779563
290.902954	1078.596802	2867.156250	1233.332275	8.651402
291.276825	1135.484863	3015.064941	1331.179688	10.411625
291.650757	1137.760376	2990.034424	1240.158813	5.528255
292.024597	1112.729614	2960.452637	1269.740601	8.497540
292.398407	1226.505737	2905.840088	1278.842651	3.116527
292.772156	1137.760376	2769.308838	1260.638550	7.531384
293.145905	1080.872437	2716.971924	1267.465088	11.404725
293.519592	1144.586914	2703.318604	1278.842651	8.613140
293.893280	1119.556274	2830.747803	1260.638550	8.244680
294.266907	1094.525513	2912.666504	1235.607788	7.759699
294.640533	1140.035889	2933.146240	1294.771362	8.629445
295.014069	1137.760376	2990.034424	1365.312500	12.285014
295.387604	1124.107300	3074.228516	1322.077637	10.151694
295.761078	1105.903076	3147.045166	1249.260864	7.023410
296.134552	1101.352051	3213.035400	1301.597900	9.482759
296.507996	1158.240112	3096.983887	1347.108276	9.741780
296.881378	1117.280762	3188.004639	1349.383789	11.208787
297.254730	1169.617676	3235.790527	1340.281738	8.259912
297.628021	1146.862427	3542.985840	1338.006226	7.977210
298.001282	1151.413574	3565.741211	1385.792114	9.707818
298.374573	1185.546387	3442.863037	1335.730713	6.653224
298.747803	1167.342163	3447.414063	1417.649414	10.978043
299.121002	1121.831787	3324.535889	1344.832764	10.123964
299.494141	1135.484863	3285.852051	1401.720825	12.380954
299.867188	1130.933838	3126.565674	1369.863525	11.972633
300.240265	1137.760376	3065.126465	1287.944824	7.792212
300.613312	1076.321289	2944.523926	1262.914063	9.987823
300.986328	1112.729614	3033.269287	1326.628662	11.137444
301.359314	1087.698975	2930.870850	1315.250977	12.345675
301.732239	1126.382813	2803.441650	1331.179688	12.211669
302.105103	1058.117188	2974.105713	1333.455200	14.370546
302.477997	1101.352051	2962.728027	1285.669312	9.902205
302.850830	1128.658325	3044.646729	1317.526489	9.857479
303.223602	1196.923950	2889.911377	1258.363037	3.629034
303.596375	1180.995239	3005.962891	1260.638550	4.364094
303.969116	1094.525513	2883.084961	1335.730713	13.486004
304.341766	1149.138062	2842.125488	1272.016113	7.258060
304.714478	1128.658325	2807.992676	1324.353149	11.653119
305.087067	1135.484863	2732.900391	1226.505737	5.698009
305.459656	1108.178589	2721.522949	1274.291626	10.296192
305.832214	1176.444214	2844.401123	1260.638550	5.047752
306.204681	1103.627563	2801.166016	1244.709839	8.310991
306.577148	1110.454102	2780.686523	1242.434326	7.901908
306.949646	1155.964600	2714.696289	1335.730713	11.532845
307.322021	1124.107300	2789.788574	1272.016113	8.879779
307.694397	1171.893188	2826.196777	1303.873413	7.977993
308.066742	1137.760376	2762.482178	1281.118164	8.823528
308.439026	1130.933838	2939.972900	1256.087524	6.918241
308.811279	1105.903076	3051.473389	1235.607788	6.666668
309.183502	1137.760376	3108.361328	1258.363037	6.120096
309.555695	1180.995239	3058.300049	1235.607788	2.909093
309.927887	1069.494751	3046.922363	1267.465088	10.011509
310.299988	1124.107300	3106.085938	1319.802124	9.873710
310.672058	1158.240112	3144.769775	1178.719727	1.030924
311.044128	1140.035889	3169.800537	1308.424438	8.295964
311.416168	1171.893188	3160.698486	1322.077637	7.551491
311.788147	1174.168701	3231.239502	1258.363037	4.092924
312.160065	1074.045776	3206.208740	1183.270874	5.122736
312.531982	1112.729614	3172.075928	1301.597900	9.171274
312.903870	1196.923950	3010.513916	1301.597900	5.771644
313.275696	1128.658325	2939.972900	1301.597900	9.547738
313.647491	1178.719727	3053.749023	1212.852539	1.820388
314.019318	1105.903076	3005.962891	1344.832764	12.574851
314.391022	1115.005249	2992.309814	1244.709839	6.909086
314.762726	1146.862427	2992.309814	1249.260864	5.548705
315.134369	1010.331238	3188.004639	1233.332275	10.240335
315.505981	1099.076538	3135.667725	1235.607788	6.703910
315.877594	1124.107300	3331.362549	1294.771362	7.731958
316.249146	1155.964600	3167.524902	1233.332275	3.846153
316.620636	1185.546387	3005.962891	1226.505737	2.249999
316.992157	1162.791138	3042.371338	1294.771362	7.021793
317.363586	1165.066650	2933.146240	1192.372925	1.544403
317.735016	1083.147949	2892.187012	1231.056763	8.176099
318.106354	1105.903076	2901.289063	1221.954712	6.463882
318.477722	1151.413574	2894.462402	1272.016113	6.919057
318.849060	1096.801025	2933.146240	1219.679199	6.691453
319.220306	1083.147949	2969.554688	1206.026001	6.513868
319.591522	1083.147949	2994.585449	1174.168701	4.761900
319.962738	1142.311401	3053.749023	1196.923950	2.857145
320.333923	1135.484863	3037.820313	1215.128052	4.186601
320.705017	1144.586914	2937.697266	1221.954712	4.314726
321.076111	1180.995239	3071.953125	1240.158813	3.128762
321.447144	1155.964600	2990.034424	1203.750488	2.605456
321.818176	1146.862427	2873.982666	1160.515625	0.790518
322.189178	1149.138062	2810.268311	1221.954712	4.383561
322.560120	1155.964600	2980.932129	1167.342163	0.623439
322.931030	1092.250000	2930.870850	1208.301514	6.311879
323.301910	1146.862427	3115.187988	1244.709839	4.971099
323.672729	1187.821899	3208.484375	1219.679199	1.576577
324.043549	1101.352051	3288.127441	1208.301514	4.890738
324.414337	1140.035889	3390.525879	1283.393677	6.370070
324.785095	1165.066650	3629.455566	1283.393677	4.801476
325.155792	1110.454102	3597.598389	1258.363037	5.946938
325.526428	1160.515625	3533.883789	1281.118164	5.081493
325.897034	1142.311401	3461.067139	1356.210449	9.224733
326.267670	1124.107300	3483.822266	1276.567139	6.460943
326.638184	1071.770264	3379.148438	1196.923950	5.424065
327.008728	1174.168701	3542.985840	1212.852539	1.633044
327.379211	1153.689087	3527.057129	1267.465088	4.793862
327.749634	1108.178589	3413.281250	1333.455200	9.772954
328.120026	1133.209351	3424.658691	1283.393677	6.554120
328.490417	1151.413574	3404.179199	1260.638550	4.848484
328.860748	1144.586914	3292.678711	1240.158813	4.449153
329.231079	1171.893188	3304.056152	1228.781250	2.668092
329.601318	1130.933838	3356.393066	1199.199463	3.067485
329.971558	1108.178589	3461.067139	1215.128052	4.545454
330.341736	1108.178589	3269.923340	1256.087524	6.842110
330.711914	1103.627563	3374.597412	1244.709839	6.212424
331.082062	1121.831787	3422.383301	1251.536499	5.637983
331.452148	1151.413574	3306.331787	1272.016113	5.596618
331.822174	1126.382813	3326.811523	1285.669312	7.238885
332.192200	1144.586914	3431.485352	1290.220337	6.368163
332.562134	1069.494751	3445.138428	1190.097412	5.076631
332.932129	1149.138062	3602.149414	1208.301514	2.411870
333.302063	1071.770264	3784.191162	1219.679199	5.453023
333.671906	1092.250000	3665.864014	1256.087524	6.366049
334.041718	1096.801025	3645.384277	1240.158813	5.624999
334.411499	1078.596802	3891.140625	1237.883301	5.663432
334.781281	1105.903076	3772.813477	1287.944824	6.825942
335.151001	1237.883301	3772.813477	1342.557251	4.129264
335.520721	1167.342163	3695.445801	1274.291626	4.230422
335.890350	1169.617676	3618.078125	1233.332275	2.602231
336.259979	1160.515625	3800.119629	1199.199463	1.465517
336.629547	1196.923950	3845.630127	1240.158813	1.632301
336.999084	1108.178589	3713.649902	1258.363037	5.764195
337.368622	1019.433350	3697.721191	1258.363037	8.920986
337.738098	1067.219238	3863.834229	1194.648438	4.556551
338.107513	1067.219238	3756.884766	1217.403687	5.583759
338.476898	1099.076538	3729.578613	1217.403687	4.498272
338.846252	1151.413574	3825.150391	1240.158813	3.319146
339.215576	1171.893188	3809.221924	1274.291626	3.882658
339.584869	1096.801025	3884.313965	1267.465088	6.122449
339.954132	1201.474976	3763.711426	1315.250977	4.440496
340.323334	1115.005249	3574.843262	1292.495850	7.215540
340.692505	1087.698975	3656.761963	1301.597900	8.325951
341.061646	1103.627563	3643.108887	1242.434326	5.465949
341.430786	1192.372925	3684.068115	1262.914063	2.831050
341.799896	1212.852539	3711.374512	1244.709839	1.275046
342.168915	1180.995239	3788.742188	1246.985352	2.530541
342.537903	1153.689087	3882.038574	1274.291626	4.420348
342.906830	1119.556274	3852.456787	1281.118164	5.911737
343.275757	1201.474976	3991.263428	1262.914063	2.202285
343.644684	1153.689087	4032.222900	1242.434326	3.083002
344.013550	1126.382813	4070.906738	1299.322388	5.873261
344.382355	1180.995239	4109.590332	1342.557251	5.516707
344.751129	1103.627563	4282.530273	1292.495850	5.941304
345.119873	1126.382813	4548.766113	1324.353149	5.784575
345.488586	1112.729614	4639.787109	1333.455200	6.258066
345.857269	1151.413574	4785.420410	1326.628662	4.821540
346.225891	1165.066650	4805.899902	1299.322388	3.687500
346.594482	1110.454102	4801.349121	1358.485962	6.720101
346.963043	1158.240112	4956.084473	1328.904175	4.493709
347.331543	1153.689087	4637.511230	1310.699951	4.506856
347.700043	1105.903076	4505.531250	1287.944824	5.354754
348.068512	1067.219238	4296.183105	1349.383789	8.738547
348.436951	1151.413574	4369.000000	1294.771362	4.455445
348.805328	1069.494751	4309.836426	1228.781250	4.915731
349.173645	1160.515625	4132.345703	1294.771362	4.517612
349.541931	1119.556274	4252.948242	1310.699951	6.100216
349.910217	1083.147949	4328.040527	1217.403687	4.137448
350.278473	1169.617676	4505.531250	1233.332275	1.909960
350.646667	1055.841675	4639.787109	1235.607788	5.015872
351.014801	1140.035889	4500.979980	1347.108276	6.161138
351.382935	1140.035889	4480.500488	1301.597900	4.836513
351.751007	1076.321289	4694.399414	1299.322388	6.163524
352.119049	1149.138062	4660.266602	1233.332275	2.397925
352.487091	1183.270874	4637.511230	1283.393677	2.898548
352.855072	1130.933838	4644.337891	1219.679199	2.525908
353.222992	1144.586914	4635.235840	1258.363037	3.259455
353.590881	1219.679199	4867.338867	1199.199463	-0.561449
353.958740	1196.923950	4876.440918	1303.873413	2.906617
354.326599	1053.566162	5179.085449	1410.822876	8.659678
354.694397	1137.760376	5038.002930	1344.832764	5.309218
355.062134	1201.474976	5242.799805	1374.414551	4.279279
355.429840	1119.556274	5386.157715	1349.383789	5.386664
355.797516	1105.903076	5481.729492	1324.353149	4.992202
356.165192	1117.280762	5618.260742	1351.659302	5.207278
356.532776	1171.893188	5577.301270	1322.077637	3.409093
356.900360	1155.964600	5747.965332	1363.036987	4.509415
357.267883	1058.117188	5904.976563	1479.088501	8.685445
357.635376	1105.903076	6355.529785	1419.924927	5.981793
358.002808	1124.107300	6505.713867	1419.924927	5.496828
358.370270	1165.066650	6856.144043	1435.853638	4.758097
358.737640	1130.933838	6931.236328	1472.261963	5.884661
359.105011	1128.658325	6621.765625	1351.659302	4.059651
359.472321	1174.168701	6403.315430	1333.455200	3.046128
359.839569	1103.627563	6321.396973	1426.751587	6.192761
360.206787	1137.760376	6141.630859	1403.996338	5.320601
360.574005	1126.382813	6569.428711	1397.169800	4.974916
360.941193	1069.494751	6696.857910	1360.761475	5.175900
361.308319	1126.382813	7170.166016	1449.506714	5.346385
361.675415	1087.698975	7645.750000	1479.088501	5.968077
362.042450	1126.382813	8282.895508	1535.976563	5.723371
362.409424	1155.964600	8585.540039	1492.741699	4.532926
362.776428	1117.280762	9004.235352	1495.017212	4.789383
363.143402	1101.352051	8510.448242	1579.211426	6.449631
363.510284	1162.791138	7948.394043	1469.986450	4.527163
363.877136	1199.199463	7154.237305	1460.884399	4.394345
364.243988	1064.943726	6639.969727	1508.670288	7.959184
364.610779	1144.586914	6446.550293	1367.588013	4.206010
364.977539	1165.066650	6271.335449	1342.557251	3.475935
365.344269	1117.280762	6178.039063	1322.077637	4.046762
365.710938	1169.617676	6116.600098	1388.067749	4.415825
366.077576	1105.903076	5875.394531	1374.414551	5.629772
366.444183	1108.178589	5916.354004	1410.822876	6.294369
366.810760	1142.311401	5884.496582	1406.271851	5.566220
367.177277	1158.240112	5914.078613	1340.281738	3.827750
367.543823	1094.525513	6048.334473	1394.894287	6.063390
367.910248	1155.964600	5859.465820	1360.761475	4.354137
368.276642	1112.729614	5900.425293	1392.618774	5.846010
368.643036	1112.729614	5893.598633	1376.690063	5.521181
369.009399	1115.005249	5829.884277	1440.404663	6.901544
369.375671	1062.668213	5645.566895	1381.241089	6.951341
369.741974	1030.810913	5677.424316	1369.863525	7.296769
370.108215	1126.382813	5750.241211	1347.108276	4.773621
370.474396	1144.586914	5718.383789	1392.618774	5.422887
370.840546	1178.719727	5736.587891	1374.414551	4.293561
371.206665	1137.760376	5977.792969	1333.455200	4.043254
371.572784	1099.076538	5930.007324	1360.761475	5.416864
371.938843	1094.525513	6082.467285	1429.027100	6.706204
372.304840	1130.933838	6150.732910	1454.057739	6.436989
372.670807	1105.903076	6316.845703	1429.027100	6.200875
373.036713	1124.107300	5984.619629	1476.812988	7.256554
373.402649	1130.933838	5998.272949	1317.526489	3.833566
373.768524	1087.698975	6034.681152	1408.547363	6.485739
374.134308	1119.556274	6153.008301	1433.578125	6.238698
374.500122	1169.617676	6082.467285	1419.924927	5.094950
374.865875	1151.413574	6137.079590	1426.751587	5.522593
375.231567	1087.698975	6248.580078	1442.680176	6.878306
375.597260	1185.546387	6423.795410	1444.955688	4.952214
375.962891	1110.454102	6514.815918	1467.710938	6.610528
376.328461	1115.005249	6658.173828	1481.364014	6.609194
376.694031	1089.974487	6690.031250	1533.701050	7.923608
377.059540	1142.311401	7192.921387	1490.466064	5.754043
377.425049	1112.729614	7406.820313	1592.864502	7.628344
377.790497	1126.382813	7638.923340	1563.282837	6.708596
378.155945	1196.923950	7868.750977	1547.354126	5.252387
378.521301	1119.556274	7943.843262	1554.180664	6.368788
378.886597	1178.719727	7550.178223	1592.864502	6.500000
379.251892	1153.689087	7176.992676	1467.710938	5.213449
379.617157	1094.525513	7026.808105	1540.527588	7.518220
379.982422	1121.831787	6994.951172	1531.425537	6.974041
380.347595	1108.178589	6865.246094	1451.782227	5.968379
380.712738	1121.831787	6776.500977	1447.231201	5.754526
381.077820	1062.668213	6910.756836	1490.466064	7.315174
381.442902	1142.311401	6808.358398	1495.017212	6.224901
381.807953	1062.668213	6783.327637	1492.741699	7.517901
382.172974	1062.668213	6655.898438	1499.568237	7.811229
382.537933	1110.454102	6660.449219	1540.527588	7.749079
382.902832	1149.138062	6796.980469	1601.966675	8.017728
383.267700	1146.862427	7033.634766	1697.538574	9.354466
383.632538	1142.311401	7031.359375	1595.140137	7.689337
383.997345	1187.821899	7206.574219	1611.068726	7.032135
384.362152	1112.729614	7377.238281	1699.814087	9.371596
384.726898	1151.413574	7545.626953	1626.997314	7.437721
385.091553	1076.321289	7393.166992	1672.507813	9.438042
385.456238	1085.423462	7361.309570	1722.569214	10.152284
385.820862	1076.321289	7525.147461	1799.937012	11.220890
386.185425	1130.933838	7632.096680	1663.405762	8.190411
386.549988	1124.107300	7477.361328	1756.702026	9.957020
386.914490	1126.382813	7823.240723	1722.569214	8.902479
387.278961	1067.219238	7950.669922	1761.253052	10.082644
387.643372	1042.188477	7937.016602	1713.467163	9.735974
388.007782	1146.862427	7880.128418	1747.599976	8.921934
388.372101	1146.862427	7998.455566	1702.089600	8.103621
388.736450	1151.413574	7966.598145	1829.518677	9.949916
389.100739	1103.627563	8073.547852	1834.069824	10.479922
389.464966	1096.801025	7802.760742	1797.661377	10.451305
389.829163	1112.729614	7702.637695	1706.640625	9.012432
390.193329	1110.454102	7789.107910	1770.355225	9.880751
390.557495	1196.923950	7748.148438	1863.651489	10.177144
390.921570	1171.893188	7971.149414	1829.518677	9.672021
391.285614	1140.035889	8282.895508	1941.019287	11.213764
391.649597	1183.270874	8571.886719	1870.478149	9.300894
392.013550	1083.147949	8833.571289	1961.498901	11.332942
392.377502	1089.974487	9184.001953	2091.203613	12.369974
392.741455	1135.484863	9300.053711	2034.315552	11.008918
393.105316	1194.648438	9181.726563	2036.591064	10.541309
393.469086	1103.627563	8849.500000	2011.560425	11.721505
393.832886	1119.556274	8744.826172	2020.662476	11.817368
394.196655	1089.974487	9022.440430	2091.203613	12.621916
394.560333	1146.862427	9170.348633	2095.754639	11.826433
394.924042	1160.515625	9249.992188	2170.846924	12.489452
395.287659	1167.342163	9145.318359	2132.163086	12.093555
395.651245	1117.280762	9170.348633	2150.367188	12.828483
396.014771	1105.903076	8908.664063	2157.193604	13.473315
396.378296	1153.689087	8403.498047	2138.989502	13.590709
396.741791	1108.178589	8462.662109	2127.612061	13.861388
397.105255	1153.689087	8385.293945	2134.438477	13.561988
397.468628	1176.444214	8123.609375	2200.428711	14.739602
397.832001	1140.035889	8068.996582	2043.417725	13.037767
398.195313	1162.791138	8207.803711	2132.163086	13.759690
398.558624	1146.862427	8214.629883	2152.642578	14.230521
398.921844	1196.923950	8175.946289	2111.683350	13.107271
399.285095	1060.392700	8335.232422	2150.367188	14.982797
399.648254	1119.556274	8255.589844	2164.020264	14.636477
400.011383	1119.556274	8567.335938	2179.948975	14.237702
400.374451	1130.933838	8291.998047	2107.132324	13.632030
400.737549	1146.862427	8460.386719	2168.571289	13.970130
401.100586	1140.035889	8235.109375	2195.877686	14.881337
401.463562	1135.484863	8276.069336	2309.653564	16.443594
401.826508	1060.392700	8449.008789	2264.143311	16.291964
402.189392	1062.668213	8337.507813	2280.071777	16.734438
402.552246	1083.147949	8364.814453	2248.214600	16.000000
402.915070	1092.250000	8467.212891	2307.378174	16.476397
403.277893	1078.596802	8578.713867	2400.674561	17.627428
403.640656	1187.821899	8749.377930	2459.837891	16.822145
404.003326	1169.617676	9129.389648	2446.184814	16.037735
404.366028	1192.372925	9172.624023	2473.491211	16.053610
404.728699	1178.719727	9493.472656	2610.022461	17.214014
405.091248	1121.831787	9937.199219	2596.369141	16.726896
405.453857	1153.689087	9730.126953	2680.563477	17.803131
405.816345	1099.076538	9620.902344	2525.828125	16.742323
406.178833	1212.852539	9739.229492	2589.542725	16.146250
406.541260	1160.515625	9839.351563	2707.869873	17.829052
406.903687	1155.964600	9381.972656	2594.093750	17.482710
407.266052	1162.791138	9070.225586	2557.685303	17.640287
407.628387	1194.648438	9286.400391	2600.920166	17.379076
407.990662	1221.954712	8986.031250	2726.073975	19.372803
408.352905	1217.403687	9272.747070	2584.991699	16.977402
408.715118	1053.566162	9149.869141	2628.226563	19.449129
409.077332	1092.250000	8842.673828	2612.297852	19.612448
409.439484	1133.209351	8972.378906	2653.257324	19.390421
409.801575	1119.556274	9224.960938	2616.848877	18.472767
410.163605	1096.801025	9227.237305	2682.839111	19.507416
410.525635	1112.729614	9541.258789	2880.809326	20.977322
410.887604	1162.791138	9645.932617	2889.911377	20.359442
411.249573	1144.586914	9900.791016	2885.360352	19.880457
411.611481	1178.719727	9887.137695	2910.391113	19.885029
411.973328	1130.933838	9789.290039	2912.666504	20.578186
412.335144	1112.729614	9570.840820	2919.493164	21.361313
412.696930	1144.586914	9413.829102	2780.686523	19.785364
413.058685	1121.831787	9293.226563	2796.614990	20.495684
413.420410	1121.831787	9454.789063	2851.227539	20.753687
413.782104	1092.250000	9689.167969	2958.177002	21.704603
414.143707	1112.729614	9714.198242	2812.543701	19.761906
414.505310	1110.454102	9545.809570	2828.472412	20.366875
414.866852	1128.658325	9741.504883	2946.799316	21.109640
415.228394	1105.903076	9884.862305	2844.401123	19.803009
415.589874	1089.974487	10087.383789	2883.084961	19.929186
415.951324	1053.566162	10217.088867	2851.227539	19.617580
416.312683	1112.729614	10485.599609	2928.595215	19.373634
416.674072	1169.617676	10665.366211	3021.891602	19.506351
417.035370	1126.382813	10874.713867	3096.983887	20.214754
417.396667	1119.556274	11218.317383	3056.024414	19.175304
417.757935	1130.933838	11238.796875	3085.606201	19.338137
418.119141	1101.352051	11985.167969	3108.361328	18.440308
418.480286	1076.321289	11823.606445	3174.351563	19.521490
418.841400	1067.219238	12524.466797	3308.607178	19.563057
419.202484	1133.209351	12924.958008	3426.934326	19.451950
419.563568	1185.546387	13480.185547	3456.516113	18.471220
419.924591	1128.658325	14449.556641	3613.527100	18.653912
420.285553	1099.076538	14301.648438	3583.945313	18.821095
420.646484	1092.250000	15484.918945	3795.568604	18.782608
421.007355	1146.862427	15382.520508	3973.059326	19.852942
421.368225	1178.719727	16292.728516	4223.366699	20.144537
421.729065	1089.974487	16750.109375	4177.855957	19.718102
422.089874	1201.474976	17412.285156	4434.990234	19.946659
422.450592	1140.035889	17196.111328	4405.408203	20.337301
422.811279	1080.872437	17405.458984	4507.806641	20.992470
423.171936	1151.413574	17275.753906	4416.785645	20.251198
423.532593	1183.270874	16624.955078	4466.847168	21.264364
423.893127	1140.035889	16688.669922	4396.306152	20.942484
424.253723	1130.933838	17018.619141	4635.235840	22.056719
424.614197	1108.178589	17473.724609	4601.103027	21.343159
424.974670	1165.066650	17630.734375	4774.042480	21.918186
425.335052	1153.689087	18044.880859	4837.757324	21.810589
425.695496	1190.097412	17389.529297	4833.206055	22.489115
426.055817	1105.903076	17289.406250	4651.164551	21.906639
426.416168	1119.556274	17107.365234	4862.788086	23.413040
426.776398	1096.801025	16144.820313	4619.307129	23.408436
427.136627	1169.617676	15564.562500	4432.714355	22.668350
427.496826	1169.617676	15746.603516	4441.816406	22.447704
427.856995	1087.698975	14906.936523	4309.836426	23.316319
428.217102	1083.147949	14383.567383	4114.141602	22.788706
428.577179	1069.494751	14217.454102	4141.447754	23.364487
428.937195	1128.658325	13912.534180	3904.793701	21.715912
429.297180	1133.209351	13407.368164	3959.406250	23.025583
429.657135	1174.168701	13514.318359	3959.406250	22.570534
430.017059	1078.596802	13682.707031	4004.916504	23.217186
430.376984	1101.352051	13314.072266	3950.304199	23.327744
430.736786	1071.770264	13209.398438	3763.711426	22.178478
431.096588	1126.382813	13241.255859	3863.834229	22.595791
431.456360	1074.045776	13006.876953	3800.119629	22.845156
431.816071	1087.698975	12783.875977	3800.119629	23.190660
432.175781	1074.045776	12902.203125	3841.079102	23.393612
432.535400	1080.872437	12990.948242	3884.313965	23.538401
432.895020	1112.729614	12936.335938	3925.273438	23.787531
433.254578	1044.463989	13093.346680	3979.885986	24.362606
433.614105	1110.454102	13425.572266	4100.488281	24.279379
433.973602	1044.463989	13509.766602	4148.274414	24.899601
434.333038	1155.964600	13691.808594	4221.091309	24.450901
434.692444	1128.658325	13616.716797	4166.478516	24.325802
435.051819	1140.035889	13898.880859	4271.152344	24.540752
435.411133	1192.372925	13944.391602	4371.275391	24.928621
435.770416	1110.454102	13350.480469	4221.091309	25.413649
436.129669	1124.107300	13969.421875	4412.234863	25.597874
436.488861	1135.484863	13484.736328	4432.714355	26.699831
436.848083	1133.209351	13646.297852	4396.306152	26.077467
437.207184	1117.280762	13596.236328	4421.336914	26.477026
437.566254	1187.821899	13853.371094	4592.000977	26.877470
437.925293	1126.382813	13657.675781	4564.694824	27.437807
438.284363	1115.005249	13973.973633	4735.358887	28.154306
438.643311	1133.209351	14492.791992	4903.747559	28.223471
439.002258	1135.484863	14281.168945	4926.502441	28.838497
439.361145	1105.903076	14781.783203	5081.237793	29.068218
439.719971	1206.026001	15175.448242	5222.320313	28.750612
440.078827	1158.240112	15389.347656	5431.667969	30.028778
440.437592	1080.872437	15748.879883	5504.484863	30.158236
440.796295	1149.138062	16128.891602	5575.025879	29.545797
441.155029	1142.311401	17102.814453	5941.384766	30.068434
441.513672	1135.484863	17316.712891	6137.079590	30.909859
441.872253	1140.035889	17334.917969	6168.937012	31.052412
442.230865	1096.801025	16832.027344	6077.916016	31.655821
442.589386	1108.178589	16706.873047	6055.160645	31.714077
442.947876	1110.454102	16538.484375	6002.823730	31.710915
443.306335	1140.035889	16351.892578	5818.506836	30.755423
443.664764	1135.484863	15744.328125	5752.516602	31.604361
444.023102	1049.015137	16097.034180	5770.720703	31.377588
444.381500	1126.382813	15839.900391	5666.046875	30.853697
444.739777	1130.933838	15753.430664	5843.537598	32.228447
445.098022	1219.679199	16338.239258	5861.741699	30.704395
445.456238	1058.117188	15953.676758	5957.313477	32.890312
445.814423	1071.770264	16838.853516	6109.773438	31.952663
446.172577	1083.147949	17676.246094	6451.101563	32.350521
446.530701	1117.280762	17218.865234	6503.438477	33.451103
446.888733	1126.382813	18304.289063	6735.541504	32.653332
447.246765	1126.382813	19330.548828	6981.297852	32.162502
447.604736	1124.107300	18791.250000	6692.306641	31.517260
447.962677	1149.138062	18261.054688	6862.970703	33.390957
448.320587	1117.280762	19093.894531	7126.931152	33.430382
448.678436	1155.964600	18702.505859	6783.327637	32.071068
449.036255	1165.066650	18295.187500	6728.714844	32.478745
449.394043	1174.168701	17405.458984	6507.989258	32.861347
449.751770	1101.352051	17708.103516	6348.703125	31.597696
450.109467	1124.107300	16925.324219	6382.835938	33.280529
450.467163	1085.423462	16579.445313	6207.620605	33.059185
450.824768	1119.556274	16768.312500	6166.661133	32.252438
451.182343	1096.801025	16322.310547	6196.243164	33.492752
451.539886	1110.454102	15705.644531	5995.997070	33.473652
451.897369	1135.484863	16044.697266	5959.588867	32.356529
452.254822	1051.290649	15698.818359	5993.721680	33.742428
452.612274	1155.964600	16320.035156	6114.324219	32.698078
452.969635	1119.556274	16258.595703	6071.089355	32.707050
453.326965	1215.128052	16156.197266	6055.160645	32.394154
453.684326	1092.250000	15842.175781	6002.823730	33.292194
454.041534	1078.596802	15482.643555	5832.159668	33.001579
454.398773	1206.026001	15350.663086	5700.179688	31.772848
454.755951	1174.168701	14977.477539	5579.577148	31.915596
455.113098	1124.107300	14426.801758	5381.606934	32.004791
455.470215	1110.454102	14599.741211	5370.229004	31.578947
455.827240	1210.577026	14704.415039	5486.280762	31.686342
456.184265	1151.413574	14360.811523	5404.361816	32.196381
456.541260	1155.964600	14383.567383	5352.024902	31.722004
456.898193	1140.035889	14174.218750	5424.841797	32.873604
457.255096	1137.760376	14627.047852	5424.841797	31.781380
457.611969	1030.810913	14586.087891	5615.985352	33.825752
457.968781	1010.331238	14422.250977	5561.373047	33.932816
458.325531	1117.280762	14815.916016	5345.198242	30.863787
458.682312	1178.719727	15280.122070	5672.873535	31.870262
459.039001	1101.352051	16046.972656	6036.956543	33.023750
459.395630	1121.831787	16979.935547	6118.875488	31.510981
459.752289	1058.117188	18183.687500	6573.979492	32.208344
460.108856	1140.035889	19601.335938	6944.889648	31.443361
460.465363	1149.138062	20286.267578	6951.715820	30.321047
460.821899	1094.525513	20215.726563	7213.400879	32.000477
461.178345	1137.760376	19564.927734	6824.287109	30.859472
461.534760	1076.321289	19266.833984	6944.889648	32.261700
461.891144	1142.311401	18413.513672	6537.571289	31.238470
462.247467	1117.280762	17739.960938	6446.550293	32.060230
462.603760	1044.463989	17316.712891	6187.141113	31.603973
462.960052	1162.791138	16251.769531	5923.180664	31.548786
463.316254	1135.484863	16065.176758	5811.680176	31.321447
463.672424	1089.974487	15589.592773	5716.108398	31.905210
464.028564	1119.556274	15459.888672	5600.056641	31.244049
464.384644	1126.382813	14977.477539	5454.423340	31.246920
464.740723	1135.484863	15230.060547	5540.893066	31.256054
465.096741	1174.168701	15250.540039	5408.913086	30.084061
465.452698	1199.199463	15209.581055	5456.698730	30.388172
465.808655	1212.852539	15277.846680	5490.831543	30.415789
466.164520	1119.556274	15100.356445	5443.045898	30.924480
466.520355	1178.719727	15732.951172	5759.343262	31.472795
466.876190	1074.045776	15942.298828	5713.832520	31.205997
467.231964	1105.903076	15917.267578	5638.740723	30.603785
467.587677	1190.097412	16574.892578	5854.915039	30.320959
467.943390	1112.729614	16572.617188	5879.945801	30.836035
468.299011	1162.791138	16185.779297	5757.067871	30.581644
468.654633	1080.872437	15965.053711	5741.139160	31.310198
469.010223	1187.821899	16081.105469	5672.873535	30.114594
469.365723	1165.066650	15314.254883	5547.719727	30.974592
469.721191	1133.209351	15830.797852	5484.005371	29.602106
470.076660	1144.586914	14843.222656	5265.555176	30.083055
470.432068	1137.760376	15318.805664	5297.412598	29.332481
470.787445	1117.280762	15182.274414	5229.146973	29.234753
471.142792	1115.005249	15032.090820	5399.811035	30.788095
471.498016	1144.586914	15257.367188	5427.117188	30.345051
471.853271	1008.055725	15189.101563	5340.647461	30.551991
472.208496	1128.658325	15414.377930	5288.310547	29.117556
472.563660	1153.689087	15480.368164	5199.564941	28.240152
472.918762	1130.933838	15928.645508	5402.086426	28.863600
473.273865	1096.801025	16133.442383	5559.097168	29.676147
473.628876	1133.209351	16499.800781	5563.648438	28.831631
473.983917	1103.627563	16643.158203	5520.413574	28.422907
474.338837	1153.689087	16467.943359	5754.791992	30.044579
474.693787	1158.240112	16440.638672	5358.851563	27.486597
475.048645	1135.484863	16244.943359	5399.811035	28.222891
475.403503	1112.729614	16406.505859	5436.219238	28.269602
475.758270	1133.209351	16481.597656	5452.147949	28.139360
476.113037	1153.689087	16743.281250	5354.300293	26.944973
476.467773	1049.015137	17027.722656	5479.454102	27.727142
476.822418	1119.556274	17771.818359	5886.772461	28.628040
477.177063	1146.862427	17662.591797	5654.669434	27.294025
477.531647	1105.903076	18051.707031	5825.333008	27.850136
477.886200	1140.035889	18552.320313	5891.323242	27.286982
478.240723	1046.739624	19114.375000	6089.293457	27.909319
478.595184	1080.872437	18973.292969	5920.905273	27.050743
478.949585	1135.484863	19184.916016	6052.885254	27.244074
479.303986	1103.627563	19444.326172	6187.141113	27.717121
479.658325	1087.698975	19721.939453	6184.865723	27.353769
480.012634	1146.862427	19817.509766	6027.854492	26.142599
480.366913	1112.729614	20602.564453	6016.477051	25.160540
480.721130	1112.729614	20955.271484	6187.141113	25.573397
481.075317	1121.831787	21526.427734	6410.142090	25.917252
481.429474	1183.270874	22686.943359	6705.959961	25.682539
481.783569	1080.872437	23638.109375	6867.521973	25.653185
482.137604	1149.138062	24778.146484	7240.707031	25.780045
482.491669	1158.240112	26744.195313	7675.331543	25.471363
482.845612	1178.719727	29599.974609	8273.793945	24.963974
483.199554	1094.525513	33504.769531	9256.818359	25.184299
483.553436	1146.862427	39443.878906	10635.784180	24.777184
483.907318	1046.739624	45528.621094	12331.046875	25.368322
484.261139	1083.147949	52525.847656	14269.791016	25.633652
484.614899	1165.066650	54785.437500	14972.926758	25.751146
484.968628	1144.586914	54698.968750	15002.508789	25.876354
485.322357	1140.035889	52578.183594	14021.758789	25.043131
485.675964	1117.280762	48894.117188	13015.978516	24.904741
486.029572	1149.138062	45144.058594	11823.606445	24.262957
486.383148	1142.311401	41869.582031	10801.897461	23.717735
486.736694	1126.382813	39482.562500	10435.538086	24.270288
487.090149	1094.525513	39216.324219	10531.110352	24.753778
487.443604	1155.964600	40570.261719	10349.068359	23.324287
487.796997	1128.658325	42154.023438	10724.529297	23.390095
488.150360	1137.760376	43749.164063	11218.317383	23.656946
488.503693	1074.045776	44529.667969	11209.215820	23.323036
488.856964	1151.413574	43603.531250	10929.326172	23.032803
489.210175	1158.240112	41703.468750	10264.874023	22.460432
489.563416	1180.995239	39086.621094	9918.995117	23.051989
489.916565	1119.556274	36440.191406	8954.174805	22.181419
490.269653	1151.413574	34512.824219	8565.060547	22.222223
490.622772	1144.586914	33174.816406	8141.813477	21.845695
490.975769	1112.729614	33325.003906	8100.854004	21.693981
491.328735	1137.760376	34594.742188	8394.396484	21.689453
491.681732	1153.689087	36667.742188	8970.102539	22.009354
492.034607	1194.648438	39036.558594	9165.797852	21.064342
492.387482	1124.107300	39782.929688	9377.420898	21.349106
492.740326	1137.760376	39100.273438	9209.032227	21.261164
493.093079	1187.821899	36749.660156	8726.622070	21.199129
493.445862	1115.005249	33957.597656	7930.189941	20.751055
493.798523	1071.770264	31388.533203	7566.106445	21.421600
494.151215	1119.556274	29106.187500	6740.092773	20.082933
494.503815	1087.698975	26964.921875	6378.284668	20.444952
494.856384	1142.311401	25442.597656	5991.446289	19.955051
495.208923	1187.821899	24259.328125	5807.128906	20.021698
495.561432	1178.719727	23515.232422	5670.597656	20.110023
495.913879	1165.066650	23048.750000	5408.913086	19.392744
496.266296	1235.607788	23487.925781	5572.750488	19.490746
496.618683	1251.536499	23324.087891	5597.781250	19.690722
496.970978	1151.413574	24104.591797	5684.250977	19.748192
497.323273	1153.689087	24425.439453	5634.189453	19.252958
497.675507	1140.035889	24709.880859	5627.362793	19.038424
498.027710	1192.372925	24316.214844	5458.974609	18.451094
498.379852	1187.821899	24245.673828	5349.749512	18.049936
498.731995	1080.872437	23920.275391	5365.678223	18.760586
499.084076	1101.352051	23738.232422	5433.943848	19.139526
499.436096	1094.525513	23080.607422	5258.728516	18.940178
499.788086	1135.484863	22759.759766	5113.095215	18.394190
500.140106	1144.586914	22413.880859	4997.043457	18.112762
500.491943	1137.760376	21546.906250	4764.940430	17.772327
500.843842	1160.515625	21649.304688	4819.553223	17.858730
501.195679	1128.658325	21137.312500	4614.756348	17.422951
501.547455	1183.270874	20657.177734	4539.664063	17.235336
501.899231	1158.240112	20632.146484	4585.174316	17.597569
502.250885	1080.872437	20236.207031	4398.581543	17.320026
502.602600	1121.831787	20402.320313	4485.051270	17.443644
502.954193	1187.821899	20495.615234	4371.275391	16.487921
503.305786	1124.107300	19992.726563	4209.713379	16.353109
503.657379	1124.107300	20693.585938	4394.030762	16.709303
504.008820	1155.964600	20154.287109	4221.091309	16.133671
504.360291	1133.209351	20770.953125	4364.448730	16.454227
504.711700	1165.066650	20529.748047	4223.366699	15.793185
505.063080	1110.454102	20634.421875	4157.376465	15.606060
505.414368	1078.596802	20566.156250	4175.580566	15.892108
505.765656	1101.352051	20588.912109	4155.101074	15.670248
506.116943	1064.943726	20748.199219	4173.305176	15.791906
506.468109	1115.005249	20340.880859	4082.284424	15.433781
506.819305	1146.862427	20552.503906	4070.906738	15.068013
507.170410	1023.984375	20450.105469	4025.396240	15.450392
507.521484	1158.240112	20181.593750	3977.610352	14.820574
507.872559	1119.556274	20670.830078	3968.508301	14.571696
508.223480	1146.862427	20948.445313	4000.365479	14.410480
508.574493	1126.382813	20786.882813	4027.671875	14.756945
508.925385	1142.311401	21239.710938	4120.968262	14.821105
509.276245	1124.107300	21319.353516	4086.835449	14.670423
509.627045	1076.321289	21694.814453	4132.345703	14.821765
509.977814	1142.311401	21838.173828	4084.559814	14.216602
510.328613	1203.750488	22147.644531	4127.794922	13.961322
510.679260	1067.219238	22143.093750	4066.355713	14.230187
511.029999	1103.627563	22161.296875	4130.070313	14.372164
511.380585	1080.872437	22352.441406	4029.947266	13.863927
511.731140	1103.627563	22800.718750	4073.182129	13.686418
512.081726	1083.147949	22805.269531	3991.263428	13.387806
512.432129	1105.903076	23094.259766	4077.733398	13.515472
512.782654	1121.831787	23285.404297	4077.733398	13.336757
513.133057	1055.841675	23278.578125	3936.650879	12.963341
513.483398	1085.423462	23226.240234	3982.161377	13.083247
513.833801	1110.454102	23260.373047	3907.069336	12.625849
514.183960	1101.352051	22805.269531	3897.967041	12.885301
514.534302	1155.964600	22834.851563	3916.171387	12.732235
514.884460	1158.240112	22802.994141	3895.691650	12.647183
515.234619	1062.668213	22468.492188	3820.599365	12.884023
515.584717	1160.515625	22641.431641	3759.160400	12.097458
515.934753	1119.556274	22643.707031	3731.854004	12.136590
516.284851	1149.138062	22748.380859	3825.150391	12.389380
516.634766	1126.382813	23194.382813	3734.129639	11.816870
516.984741	1121.831787	23303.609375	3756.884766	11.879359
517.334595	1126.382813	24143.275391	3688.619141	11.131982
517.684448	1085.423462	24732.634766	3699.996826	11.056581
518.034363	1064.943726	25954.589844	3863.834229	11.245200
518.384094	1042.188477	26737.369141	3829.701416	10.848389
518.733826	1142.311401	27900.160156	4036.773926	10.817245
519.083496	1085.423462	28473.591797	4027.671875	10.742772
519.433167	1135.484863	28915.042969	4132.345703	10.788008
519.782776	1074.045776	28612.398438	4025.396240	10.717237
520.132324	1176.444214	28029.865234	3922.997803	10.227947
520.481873	1101.352051	27360.861328	3938.926514	10.805893
520.831299	1108.178589	27162.892578	3816.048340	10.393012
521.180786	1076.321289	26350.531250	3674.966064	10.281804
521.530151	1199.199463	25938.662109	3649.935303	9.906180
521.879517	1180.995239	25390.261719	3504.302002	9.596766
522.228882	1083.147949	25151.332031	3497.475586	10.031200
522.578064	1167.342163	25126.300781	3513.404053	9.792003
522.927307	1135.484863	25472.179688	3319.984863	8.976157
523.276489	1103.627563	25560.925781	3333.637939	9.117974
523.625610	1108.178589	25438.046875	3351.842041	9.221848
523.974792	1171.893188	26264.060547	3317.709229	8.551736
524.323792	1099.076538	26710.062500	3499.750977	9.373611
524.672852	1105.903076	27165.167969	3420.107666	8.880544
525.021790	1096.801025	28248.314453	3561.189941	9.076433
525.370728	1058.117188	29233.615234	3399.628174	8.310452
525.719604	1169.617676	30553.417969	3729.578613	8.712151
526.068420	1135.484863	32644.621094	3752.333740	8.305048
526.417297	1096.801025	34030.414063	3870.660889	8.422580
526.765991	1160.515625	34663.007813	3813.772949	7.919582
527.114746	1185.546387	35834.902344	3943.477539	7.959545
527.463379	1160.515625	37136.500000	3957.130615	7.773561
527.812012	1099.076538	38902.304688	4175.580566	8.138205
528.160706	1199.199463	42383.851563	4353.071289	7.657881
528.509155	1169.617676	47483.292969	4557.868164	7.315875
528.857727	1115.005249	52282.367188	4956.084473	7.506893
529.206177	1121.831787	54940.175781	5433.943848	8.012346
529.554565	1142.311401	55174.554688	5265.555176	7.631080
529.902893	1105.903076	54275.722656	5119.921875	7.549431
530.251221	1069.494751	51479.105469	4801.349121	7.403062
530.599548	1115.005249	47713.121094	4334.867188	6.909854
530.947876	1135.484863	43594.425781	4218.815430	7.261911
531.296021	1112.729614	40638.527344	3845.630127	6.914219
531.644165	1174.168701	37584.777344	3754.609375	7.087057
531.992249	1208.301514	35803.042969	3411.005615	6.367165
532.340454	1083.147949	34674.386719	3461.067139	7.078986
532.688354	1108.178589	35291.050781	3417.832275	6.756758
533.036438	1146.862427	36283.179688	3331.362549	6.217214
533.384338	1080.872437	39011.527344	3540.710449	6.485092
533.732239	1108.178589	40265.339844	3463.342773	6.014645
534.080139	1137.760376	40834.222656	3579.394287	6.150759
534.427917	1155.964600	40515.648438	3524.781738	6.018384
534.775757	1112.729614	38656.546875	3497.475586	6.351901
535.123474	1137.760376	37095.539063	3213.035400	5.771421
535.471191	1105.903076	35163.621094	3122.014648	5.919691
535.818848	1074.045776	33934.839844	3033.269287	5.962192
536.166382	1153.689087	32382.937500	2965.003662	5.800058
536.513977	1085.423462	33274.941406	2962.728027	5.832037
536.861511	1162.791138	33434.226563	2892.187012	5.358906
537.208984	1119.556274	33304.523438	2830.747803	5.316741
537.556396	1192.372925	33095.175781	2878.533936	5.285307
537.903809	1135.484863	32223.650391	2792.063965	5.328649
538.251160	1089.974487	31240.625000	2764.757813	5.554717
538.598389	1096.801025	29882.138672	2714.696289	5.620553
538.945740	1119.556274	28824.021484	2544.032227	5.141684
539.292969	1142.311401	28339.335938	2562.236328	5.220883
539.640137	1076.321289	28155.019531	2528.103516	5.361344
539.987244	1044.463989	28550.958984	2471.215576	5.186963
540.334351	1039.912964	29033.369141	2512.175049	5.259308
540.681458	1124.107300	30942.531250	2521.277100	4.685592
541.028442	1096.801025	33534.351563	2655.532715	4.805331
541.375366	1176.444214	36943.082031	2742.002686	4.377148
541.722290	1121.831787	39619.093750	2994.585449	4.864641
542.069153	1176.444214	42015.214844	3056.024414	4.602441
542.416016	1146.862427	42156.296875	2955.901611	4.411276
542.762756	1108.178589	41064.046875	2985.483398	4.698446
543.109558	1180.995239	39605.441406	2833.023438	4.299420
543.456299	1137.760376	37878.320313	2821.645752	4.583179
543.802917	1210.577026	36447.015625	2703.318604	4.236358
544.149536	1135.484863	34667.558594	2516.726074	4.119164
544.496094	1101.352051	32546.773438	2450.735840	4.291193
544.842651	1099.076538	30812.828125	2448.460449	4.541277
545.189148	1167.342163	29743.332031	2330.133301	4.069119
545.535583	1215.128052	28282.447266	2275.520752	3.917613
545.882019	1087.698975	27381.341797	2214.081787	4.283860
546.228333	1183.270874	27265.291016	2314.204590	4.336067
546.574707	1133.209351	27069.595703	2148.091553	3.912967
546.920898	1153.689087	27599.791016	2150.367188	3.768715
547.267212	1110.454102	27458.708984	2166.295898	4.007255
547.613342	1103.627563	27080.972656	2138.989502	3.985634
547.959473	1119.556274	26885.277344	2120.785400	3.885896
548.305664	1112.729614	26543.949219	2072.999512	3.775949
548.651611	1142.311401	25108.095703	2123.060791	4.092290
548.997742	1169.617676	24191.062500	1915.988525	3.242068
549.343689	1160.515625	23535.710938	1922.815063	3.406895
549.689575	1171.893188	22388.849609	2061.621826	4.193479
550.035522	1119.556274	21612.896484	1934.192627	3.975127
550.381287	1128.658325	20616.218750	1843.171875	3.666511
550.727173	1133.209351	20714.066406	1777.181763	3.288785
551.072876	1089.974487	20095.125000	1811.314575	3.795498
551.418640	1108.178589	19815.234375	1758.977539	3.478895
551.764282	1117.280762	19621.816406	1831.794189	3.861288
552.109863	1112.729614	20026.859375	1761.253052	3.428778
552.455505	1121.831787	19908.531250	1722.569214	3.197674
552.801025	1119.556274	20322.675781	1790.834839	3.495675
553.146545	1085.423462	20593.462891	1722.569214	3.266068
553.491943	1101.352051	20880.179688	1756.702026	3.313391
553.837341	1087.698975	20718.617188	1697.538574	3.106526
554.182800	1117.280762	20700.412109	1720.293701	3.079247
554.528015	1055.841675	20149.736328	1733.946899	3.551424
554.873352	1099.076538	20015.480469	1706.640625	3.211837
555.218628	1099.076538	19596.785156	1765.804199	3.604380
555.563721	1133.209351	19296.416016	1740.773438	3.345026
555.908875	1092.250000	18971.017578	1631.548462	3.016418
556.254028	1094.525513	18832.210938	1658.854614	3.181526
556.599121	1192.372925	18465.851563	1606.517700	2.397576
556.944031	1165.066650	18097.216797	1588.313477	2.499664
557.289063	1108.178589	18302.013672	1574.660400	2.713076
557.633972	1146.862427	17985.716797	1640.650513	2.932433
557.978882	1142.311401	18015.298828	1583.762451	2.616318
558.323792	1155.964600	17908.349609	1576.935913	2.512904
558.668518	1160.515625	17667.142578	1608.793213	2.715743
559.013306	1212.852539	17660.316406	1672.507813	2.794688
559.358032	1155.964600	17676.246094	1561.007324	2.451791
559.702637	1126.382813	17710.378906	1526.874512	2.414929
560.047363	1067.219238	17621.632813	1597.415649	3.202749
560.391846	1076.321289	17455.519531	1624.721802	3.348152
560.736450	1146.862427	17512.408203	1531.425537	2.349834
561.080933	1099.076538	17569.296875	1558.731689	2.790826
561.425354	1121.831787	17928.828125	1513.221313	2.328730
561.769775	1064.943726	17928.828125	1604.242188	3.197949
562.114136	1174.168701	18010.748047	1599.691162	2.527369
562.458496	1158.240112	17928.828125	1460.884399	1.804613
562.802673	1126.382813	18158.656250	1547.354126	2.471610
563.146912	1133.209351	17931.103516	1586.037964	2.695746
563.491150	1103.627563	17585.224609	1545.078613	2.678448
563.835266	1142.311401	17539.714844	1515.496826	2.275881
564.179443	1169.617676	17751.337891	1633.823975	2.799506
564.523438	1142.311401	17612.531250	1513.221313	2.252003
564.867493	1101.352051	17628.458984	1520.047852	2.533388
565.211426	1162.791138	18129.074219	1499.568237	1.984979
565.555359	1071.770264	18024.400391	1592.864502	3.073825
565.899231	1089.974487	18468.126953	1492.741699	2.317664
566.243042	1149.138062	19139.406250	1483.639526	1.859347
566.586914	1144.586914	19542.171875	1549.629639	2.201608
566.930603	1087.698975	19894.878906	1581.486938	2.625529
567.274292	1099.076538	19965.419922	1613.344238	2.725847
567.617981	1094.525513	19954.041016	1572.384888	2.533784
567.961609	1165.066650	19665.050781	1535.976563	2.004920
568.305237	1133.209351	19423.845703	1504.119263	2.027868
568.648682	1071.770264	18875.445313	1538.252075	2.620143
568.992188	1128.658325	18531.841797	1506.394775	2.170502
569.335632	1076.321289	18513.636719	1533.701050	2.622994
569.679016	1135.484863	18495.433594	1556.456177	2.424957
570.022461	1142.311401	18245.125000	1447.231201	1.782863
570.365662	1130.933838	18504.535156	1483.639526	2.030124
570.708984	1110.454102	18208.716797	1479.088501	2.155976
571.052185	1099.076538	18481.779297	1449.506714	2.015970
571.395386	1089.974487	18595.556641	1526.874512	2.495775
571.738525	1103.627563	19339.650391	1520.047852	2.283504
572.081604	1133.209351	19569.478516	1567.833862	2.357443
572.424683	1153.689087	19792.480469	1515.496826	1.941155
572.767578	1099.076538	20115.603516	1490.466064	2.058155
573.110596	1087.698975	19899.429688	1538.252075	2.395065
573.453552	1115.005249	19853.919922	1579.211426	2.477231
573.796387	1133.209351	19369.232422	1542.803101	2.246069
574.139282	1096.801025	19578.580078	1492.741699	2.142330
574.481995	1178.719727	19200.843750	1485.915039	1.704545
574.824768	1101.352051	19157.609375	1497.292725	2.192817
575.167480	1094.525513	19023.353516	1497.292725	2.246478
575.510132	1103.627563	18918.679688	1485.915039	2.145868
575.852722	1117.280762	18977.843750	1540.527588	2.369728
576.195251	1144.586914	18927.781250	1442.680176	1.676264
576.537842	1140.035889	18695.679688	1595.140137	2.592353
576.880188	1149.138062	18390.759766	1501.843750	2.045664
577.222717	1103.627563	17937.929688	1449.506714	2.054609
577.565063	1083.147949	17476.000000	1406.271851	1.971127
577.907410	1165.066650	17466.898438	1365.312500	1.228364
578.249756	1128.658325	17095.988281	1433.578125	1.909648
578.591919	1117.280762	16431.535156	1410.822876	1.916790
578.934204	1124.107300	16374.647461	1474.537476	2.297822
579.276306	1130.933838	16097.034180	1422.200562	1.946176
579.618469	1083.147949	15471.265625	1458.608887	2.609521
579.960571	1124.107300	15482.643555	1415.373901	2.028526
580.302551	1089.974487	15268.744141	1410.822876	2.262879
580.644531	1126.382813	15102.631836	1419.924927	2.100292
580.986511	1112.729614	14763.579102	1381.241089	1.966995
581.328369	1085.423462	14827.293945	1317.526489	1.689021
581.670227	1183.270874	14733.997070	1419.924927	1.746431
582.012024	1144.586914	14688.486328	1406.271851	1.932124
582.353821	1201.474976	14658.905273	1312.975464	0.828542
582.695496	1112.729614	14447.281250	1367.588013	1.911263
583.037231	1158.240112	14545.128906	1403.996338	1.835798
583.378845	1206.026001	14531.475586	1365.312500	1.195356
583.720398	1169.617676	14249.311523	1315.250977	1.113431
584.062012	1155.964600	14526.924805	1338.006226	1.361470
584.403442	1140.035889	14069.544922	1397.169800	1.988737
584.744934	1155.964600	14026.310547	1338.006226	1.414427
585.086365	1115.005249	14217.454102	1372.139038	1.962486
585.427734	1112.729614	14235.658203	1388.067749	2.098145
585.768982	1231.056763	14231.107422	1372.139038	1.085244
586.110291	1126.382813	14003.554688	1403.996338	2.155858
586.451599	1130.933838	13896.605469	1331.179688	1.568628
586.792725	1174.168701	14146.913086	1328.904175	1.192774
587.133850	1046.739624	13960.320313	1353.934937	2.378855
587.474915	1126.382813	14237.933594	1326.628662	1.527248
587.815979	1103.627563	14028.585938	1342.557251	1.848592
588.157043	1171.893188	14078.647461	1317.526489	1.128350
588.497925	1103.627563	14046.790039	1356.210449	1.951477
588.838867	1103.627563	14283.444336	1408.547363	2.313536
589.179749	1174.168701	14231.107422	1429.027100	1.951900
589.520569	1178.719727	14551.955078	1294.771362	0.867790
589.861450	1160.515625	14724.895508	1360.761475	1.476262
590.202087	1124.107300	14472.312500	1388.067749	1.977498
590.542847	1169.617676	14840.946289	1340.281738	1.248336
590.883484	1137.760376	14772.680664	1331.179688	1.418558
591.224121	1194.648438	14504.169922	1301.597900	0.803556
591.564636	1094.525513	14820.466797	1392.618774	2.171751
591.905151	1037.637451	14292.545898	1299.322388	1.974249
592.245667	1051.290649	14328.954102	1408.547363	2.690660
592.585999	1142.311401	14410.873047	1378.965576	1.783571
592.926453	1105.903076	14035.412109	1340.281738	1.812742
593.266724	1126.382813	14215.178711	1363.036987	1.808067
593.607056	1121.831787	14235.658203	1378.965576	1.960784
593.947388	1117.280762	14328.954102	1374.414551	1.946262
594.287476	1089.974487	14292.545898	1281.118164	1.447776
594.627686	1121.831787	14465.485352	1376.690063	1.909959
594.967773	1187.821899	14479.138672	1356.210449	1.266906
595.307861	1178.719727	14845.498047	1429.027100	1.831502
595.647888	1115.005249	14863.702148	1351.659302	1.721283
595.987854	1158.240112	15132.212891	1340.281738	1.302719
596.327820	1110.454102	15311.979492	1378.965576	1.890723
596.667725	1099.076538	15637.378906	1388.067749	1.987792
597.007568	1212.852539	16265.422852	1408.547363	1.300076
597.347351	1169.617676	16731.904297	1406.271851	1.520690
597.687073	1085.423462	17212.039063	1490.466064	2.511641
598.026794	1133.209351	16802.445313	1390.343262	1.641011
598.366455	1151.413574	16513.455078	1372.139038	1.436824
598.706116	1146.862427	16147.095703	1363.036987	1.441141
599.045654	1169.617676	15664.685547	1388.067749	1.507065
599.385193	1155.964600	15022.988281	1315.250977	1.148670
599.724731	1171.893188	14426.801758	1335.730713	1.236052
600.064087	1083.147949	14454.108398	1383.516602	2.246425
600.403564	1105.903076	13992.177734	1308.424438	1.571605
600.742920	1085.423462	13782.829102	1372.139038	2.258064
601.082153	1130.933838	13744.145508	1392.618774	2.074689
601.421387	1151.413574	13430.124023	1356.210449	1.667902
601.760620	1055.841675	13512.042969	1335.730713	2.246985
602.099854	1064.943726	13703.186523	1385.792114	2.538710
602.438843	1149.138062	13628.093750	1351.659302	1.622902
602.778015	1149.138062	13999.003906	1365.312500	1.682309
603.117065	1089.974487	14080.922852	1378.965576	2.224557
603.456055	1060.392700	14711.242188	1356.210449	2.167028
603.794983	1096.801025	14838.670898	1310.699951	1.556549
604.133850	1133.209351	15560.011719	1374.414551	1.671924
604.472778	1142.311401	15817.145508	1381.241089	1.628159
604.811584	1183.270874	16552.138672	1419.924927	1.539827
605.150330	1119.556274	16811.546875	1394.894287	1.754640
605.489075	1130.933838	17082.333984	1472.261963	2.139800
605.827698	1094.525513	16731.904297	1369.863525	1.760768
606.166382	1119.556274	16652.261719	1399.445313	1.801934
606.504883	1124.107300	16165.299805	1367.588013	1.618759
606.843445	976.198425	15616.899414	1426.751587	3.077402
607.181946	1140.035889	15318.805664	1267.465088	0.898732
607.520386	1165.066650	14349.434570	1322.077637	1.190887
607.858826	1162.791138	14301.648438	1415.373901	1.922410
608.197083	1149.138062	13958.044922	1372.139038	1.740984
608.535461	1085.423462	13776.002930	1335.730713	1.972386
608.873718	1146.862427	13821.513672	1342.557251	1.543986
609.211914	1146.862427	14404.046875	1363.036987	1.630622
609.550171	1080.872437	14615.669922	1417.649414	2.488230
609.888245	1144.586914	14986.580078	1333.455200	1.364459
610.226318	1092.250000	15396.173828	1383.516602	2.036271
610.564392	1190.097412	15530.429688	1358.485962	1.174230
610.902344	1144.586914	15177.723633	1426.751587	2.010703
611.240295	1133.209351	15054.845703	1333.455200	1.438379
611.578247	1101.352051	14338.056641	1349.383789	1.873818
611.916138	1089.974487	14476.863281	1383.516602	2.192758
612.253845	1146.862427	13826.064453	1319.802124	1.363964
612.591675	1117.280762	13537.073242	1322.077637	1.648956
612.929382	1160.515625	13461.981445	1388.067749	1.849797
613.267090	1142.311401	12990.948242	1338.006226	1.651623
613.604736	1144.586914	12947.712891	1351.659302	1.754386
613.942261	1133.209351	12485.782227	1347.108276	1.884145
614.279785	1046.739624	12474.405273	1306.148926	2.270011
614.617310	1130.933838	12137.627930	1281.118164	1.364482
614.954712	1085.423462	12267.333008	1312.975464	2.035001
615.292175	1178.719727	12078.464844	1303.873413	1.148226
615.629517	1187.821899	11969.239258	1299.322388	1.034191
615.966797	1183.270874	12060.259766	1344.832764	1.485355
616.304138	1103.627563	11980.617188	1388.067749	2.615064
616.641296	1119.556274	11932.831055	1287.944824	1.557239
616.978516	1130.933838	12060.259766	1342.557251	1.936290
617.315552	1201.474976	11989.718750	1283.393677	0.759333
617.652771	1235.607788	11841.810547	1299.322388	0.600730
617.989685	1124.107300	12094.392578	1246.985352	1.120099
618.326721	1121.831787	11855.462891	1262.914063	1.314395
618.663696	1142.311401	12078.464844	1319.802124	1.622972
619.000549	1103.627563	12101.219727	1333.455200	2.089800
619.337463	1142.311401	11989.718750	1351.659302	1.929935
619.674194	1162.791138	11960.137695	1324.353149	1.496312
620.010986	1171.893188	11828.157227	1349.383789	1.665599
620.347778	1033.086426	11966.963867	1285.669312	2.310094
620.684387	1110.454102	11878.218750	1278.842651	1.563821
621.020996	1101.352051	11534.615234	1335.730713	2.246456
621.357605	1117.280762	11923.728516	1310.699951	1.789850
621.694214	1087.698975	11439.042969	1335.730713	2.396131
622.030579	1094.525513	11439.042969	1328.904175	2.265728
622.367065	1128.658325	11484.553711	1287.944824	1.538124
622.703430	1144.586914	11468.625000	1360.761475	2.093895
623.039795	1051.290649	11532.339844	1322.077637	2.583587
623.376160	1035.361938	11386.706055	1308.424438	2.637943
623.712402	1099.076538	11461.797852	1281.118164	1.756697
624.048645	1151.413574	11464.074219	1331.179688	1.743160
624.384766	1115.005249	11131.847656	1333.455200	2.180826
624.720886	1019.433350	11361.675781	1372.139038	3.410341
625.057007	1094.525513	11361.675781	1353.934937	2.526596
625.392944	1153.689087	11429.941406	1299.322388	1.417183
625.729004	1096.801025	11468.625000	1310.699951	2.062308
626.064941	1140.035889	11618.809570	1319.802124	1.715527
626.400818	1151.413574	11903.249023	1374.414551	2.074074
626.736633	1110.454102	12087.566406	1349.383789	2.176617
627.072449	1128.658325	12210.444336	1276.567139	1.334702
627.408264	1085.423462	12503.986328	1303.873413	1.913113
627.743896	1028.535400	12376.557617	1331.179688	2.666934
628.079590	1142.311401	12613.211914	1272.016113	1.130728
628.415161	1162.791138	12365.179688	1429.027100	2.376600
628.750793	1162.791138	12296.914063	1310.699951	1.328428
629.086365	1151.413574	12055.708984	1335.730713	1.690317
629.421753	1155.964600	11778.095703	1385.792114	2.163667
629.757263	1133.209351	11693.901367	1356.210449	2.111614
630.092651	1146.862427	11607.431641	1285.669312	1.326953
630.427917	1185.546387	11275.206055	1274.291626	0.879566
630.763184	1167.342163	11077.235352	1233.332275	0.665901
631.098511	1144.586914	11245.624023	1283.393677	1.374183
631.433716	1067.219238	10911.122070	1224.230225	1.595008
631.768799	1128.658325	10931.601563	1353.934937	2.298051
632.103943	1142.311401	10745.008789	1290.220337	1.540285
632.438965	1089.974487	10380.925781	1249.260864	1.714425
632.773987	1099.076538	10471.946289	1287.944824	2.015053
633.109070	1087.698975	10606.202148	1347.108276	2.725316
633.443848	1074.045776	10362.721680	1244.709839	1.837335
633.778870	1176.444214	10658.539063	1269.740601	0.983922
634.113708	1194.648438	10704.049805	1285.669312	0.957167
634.448425	1121.831787	10683.570313	1269.740601	1.546882
634.783264	1142.311401	10487.875000	1290.220337	1.582665
635.117859	1119.556274	10547.039063	1251.536499	1.399952
635.452576	1064.943726	10567.518555	1276.567139	2.227011
635.787170	1126.382813	10430.987305	1303.873413	1.907557
636.121704	1089.974487	10253.497070	1306.148926	2.359076
636.456177	1137.760376	10351.343750	1269.740601	1.432453
636.790588	1135.484863	10141.996094	1233.332275	1.086407
637.125122	1069.494751	9987.260742	1265.189575	2.194438
637.459412	1167.342163	9891.688477	1228.781250	0.704226
637.793762	1140.035889	9868.933594	1274.291626	1.538061
638.128052	1099.076538	9443.411133	1272.016113	2.072539
638.462280	1206.026001	9602.698242	1274.291626	0.813008
638.796509	1162.791138	9736.953125	1235.607788	0.849257
639.130615	1124.107300	9520.779297	1221.954712	1.165312
639.464722	1137.760376	9306.879883	1194.648438	0.696379
639.798767	1133.209351	9318.257813	1233.332275	1.223242
640.132751	1160.515625	9482.094727	1244.709839	1.011758
640.466736	1076.321289	9095.256836	1292.495850	2.695801
640.800598	1121.831787	9143.042969	1258.363037	1.702128
641.134521	1071.770264	9088.429688	1312.975464	3.008800
641.468262	1119.556274	9092.981445	1272.016113	1.912100
641.802063	1021.708862	8972.378906	1285.669312	3.319978
642.135803	1117.280762	8954.174805	1272.016113	1.974447
642.469421	1162.791138	8692.489258	1351.659302	2.508310
642.803101	1074.045776	8840.398438	1287.944824	2.754176
643.136658	1119.556274	8753.928711	1246.985352	1.669149
643.470215	1149.138062	8758.479492	1269.740601	1.584927
643.803711	1221.954712	8621.948242	1251.536499	0.399754
644.137085	1137.760376	8535.478516	1201.474976	0.861274
644.470581	1117.280762	8742.550781	1256.087524	1.820352
644.803833	1103.627563	8464.937500	1267.465088	2.225657
645.137207	1160.515625	8692.489258	1285.669312	1.661632
645.470459	1105.903076	8560.508789	1301.597900	2.625153
645.803589	1128.658325	8585.540039	1260.638550	1.769912
646.136780	1110.454102	8644.703125	1294.771362	2.446392
646.469849	1137.760376	8849.500000	1256.087524	1.534377
646.802979	1140.035889	8642.427734	1199.199463	0.788596
647.135986	1219.679199	8546.856445	1287.944824	0.931677
647.468994	1094.525513	8756.204102	1233.332275	1.811702
647.801941	1167.342163	8706.142578	1326.628662	2.112889
648.134766	1190.097412	8697.040039	1201.474976	0.151561
648.467651	1149.138062	8756.204102	1269.740601	1.585402
648.800354	1071.770264	8699.316406	1363.036987	3.818616
649.133179	1140.035889	8758.479492	1290.220337	1.971327
649.465881	1108.178589	8549.131836	1306.148926	2.660551
649.798462	1101.352051	8715.245117	1246.985352	1.912731
650.131104	1078.596802	8640.152344	1251.536499	2.287091
650.463623	1240.158813	8694.764648	1310.699951	0.946276
650.796143	1144.586914	8496.794922	1235.607788	1.238007
651.128662	1108.178589	8694.764648	1265.189575	2.069587
651.461060	1144.586914	8617.397461	1299.322388	2.070646
651.793396	1064.943726	8710.693359	1206.026001	1.845238
652.125732	1089.974487	8715.245117	1217.403687	1.671143
652.458008	1076.321289	8599.193359	1303.873413	3.024804
652.790222	1069.494751	8744.826172	1215.128052	1.897420
653.122437	1099.076538	8580.989258	1246.985352	1.976885
653.454529	1144.586914	8628.774414	1258.363037	1.520220
653.786621	1099.076538	8683.387695	1253.812012	2.040205
654.118713	1162.791138	8569.611328	1203.750488	0.552995
654.450623	1096.801025	8590.090820	1249.260864	2.034618
654.782654	1162.791138	8499.070313	1267.465088	1.426799
655.114502	1140.035889	8417.151367	1258.363037	1.626017
655.446350	1201.474976	8351.161133	1322.077637	1.686825
655.778198	1178.719727	8239.661133	1249.260864	0.999033
656.109863	1124.107300	8262.416016	1269.740601	2.040165
656.441650	1180.995239	8278.344727	1287.944824	1.506895
656.773254	1171.893188	8244.211914	1174.168701	0.032175
657.104919	1140.035889	8205.528320	1235.607788	1.352657
657.436462	1135.484863	8112.231445	1226.505737	1.304632
657.767944	1042.188477	8328.406250	1265.189575	3.060588
658.099548	1044.463989	8362.539063	1210.577026	2.269901
658.430908	1069.494751	8367.089844	1265.189575	2.681634
658.762268	1119.556274	8512.723633	1256.087524	1.846722
659.093628	1037.637451	8867.704102	1210.577026	2.208660
659.424927	1094.525513	9081.603516	1212.852539	1.481481
659.756226	1119.556274	9586.769531	1224.230225	1.236227
660.087341	1092.250000	9743.780273	1278.842651	2.156759
660.418518	1103.627563	9686.891602	1265.189575	1.882291
660.749573	1140.035889	9627.728516	1212.852539	0.857909
661.080627	1140.035889	9527.605469	1272.016113	1.573522
661.411621	1119.556274	9552.636719	1322.077637	2.401511
661.742554	1089.974487	9104.358398	1301.597900	2.640545
662.073547	1099.076538	9038.368164	1319.802124	2.780167
662.404297	1151.413574	8956.450195	1319.802124	2.157434
662.735229	1153.689087	8631.050781	1215.128052	0.821666
663.065979	1094.525513	8378.467773	1269.740601	2.405498
663.396667	1135.484863	8264.691406	1210.577026	1.053303
663.727417	1119.556274	8028.037598	1317.526489	2.865611
664.057922	1151.413574	7952.945313	1365.312500	3.144864
664.388611	1124.107300	7927.914551	1242.434326	1.739130
664.719116	1133.209351	7805.036133	1183.270874	0.750342
665.049622	1146.862427	7661.678711	1256.087524	1.676564
665.380005	1083.147949	7659.402832	1208.301514	1.903113
665.710388	1053.566162	7545.626953	1242.434326	2.909218
666.040771	1115.005249	7679.882813	1165.066650	0.762564
666.371033	1149.138062	7538.800293	1319.802124	2.670940
666.701294	1171.893188	7520.596191	1196.923950	0.394266
667.031555	1130.933838	7627.545898	1265.189575	2.066550
667.361633	1128.658325	7345.381348	1281.118164	2.452415
667.691772	1149.138062	7516.045410	1237.883301	1.393852
668.021790	1064.943726	7616.167969	1292.495850	3.473429
668.351807	1133.209351	7477.361328	1283.393677	2.367288
668.681763	1130.933838	7531.973633	1242.434326	1.741912
669.011719	1126.382813	7493.290039	1199.199463	1.143674
669.341614	1112.729614	7720.842285	1194.648438	1.239671
669.671387	1130.933838	7634.372070	1265.189575	2.064381
670.001221	1142.311401	7593.413086	1224.230225	1.269842
670.330933	1101.352051	7486.463379	1240.158813	2.173913
670.660583	1117.280762	7634.372070	1233.332275	1.780726
670.990173	1146.862427	7468.259277	1226.505737	1.259900
671.319763	1146.862427	7399.993652	1306.148926	2.547308
671.649292	1146.862427	7297.595215	1194.648438	0.776916
671.978821	1071.770264	7577.484375	1267.465088	3.008045
672.308289	1110.454102	7377.238281	1212.852539	1.633987
672.637695	1149.138062	7231.604980	1231.056763	1.346801
672.966980	1092.250000	7202.023438	1281.118164	3.091247
673.296326	1194.648438	7067.767578	1308.424438	1.937233
673.625610	1087.698975	7242.982910	1219.679199	2.144178
673.954773	1110.454102	7076.869629	1267.465088	2.631580
674.283936	1187.821899	7154.237305	1269.740601	1.372997
674.613037	1126.382813	6958.542480	1278.842651	2.614123
674.942078	1121.831787	6901.654785	1274.291626	2.637794
675.271118	1108.178589	7074.594238	1244.709839	2.288330
675.600098	1096.801025	6992.675293	1187.821899	1.543806
675.928955	1135.484863	7095.073730	1240.158813	1.756395
676.257813	1155.964600	6935.787598	1283.393677	2.204723
676.586670	1096.801025	6988.124512	1260.638550	2.780997
676.915466	1110.454102	6922.134277	1244.709839	2.310102
677.244141	1203.750488	6897.103516	1224.230225	0.359713
677.572876	1103.627563	6862.970703	1135.484863	0.553141
677.901489	1110.454102	6892.552734	1224.230225	1.967731
678.230042	1087.698975	6906.205566	1169.617676	1.407899
678.558594	1064.943726	7022.257324	1272.016113	3.475936
678.887085	1092.250000	7133.757813	1119.556274	0.451978
679.215515	1092.250000	7067.767578	1196.923950	1.751714
679.543945	1137.760376	7231.604980	1251.536499	1.867066
679.872253	1140.035889	7270.289063	1249.260864	1.781737
680.200562	1064.943726	7279.391113	1256.087524	3.075797
680.528809	1174.168701	7404.544922	1249.260864	1.205259
680.856995	1140.035889	7670.780762	1231.056763	1.393729
681.185120	1162.791138	7668.504883	1308.424438	2.238544
681.513306	1112.729614	7827.791504	1249.260864	2.033209
681.841309	1064.943726	7784.556641	1244.709839	2.675245
682.169373	1180.995239	7531.973633	1215.128052	0.537442
682.497314	1194.648438	7661.678711	1203.750488	0.140745
682.825134	1128.658325	7593.413086	1269.740601	2.182330
683.153076	1101.352051	7388.616211	1233.332275	2.099168
683.480896	1087.698975	7322.625977	1308.424438	3.540145
683.808655	1169.617676	7247.533691	1244.709839	1.235492
684.136414	1062.668213	7038.186035	1269.740601	3.465347
684.464050	1121.831787	7022.257324	1242.434326	2.043963
684.791626	1037.637451	6765.123535	1224.230225	3.257848
685.119263	1069.494751	6853.868652	1190.097412	2.084973
685.446838	1167.342163	6614.938965	1215.128052	0.877192
685.774292	1101.352051	6610.387695	1215.128052	2.065262
686.101685	1149.138062	6576.254883	1242.434326	1.719076
686.429077	1137.760376	6662.725098	1249.260864	2.018121
686.756348	1176.444214	6539.846680	1203.750488	0.509122
687.083679	1069.494751	6373.733887	1201.474976	2.488203
687.410950	1101.352051	6412.417480	1262.914063	3.041989
687.738159	1212.852539	6655.898438	1233.332275	0.376255
688.065308	1094.525513	6592.183594	1251.536499	2.855961
688.392395	1185.546387	6628.592285	1221.954712	0.668896
688.719421	1160.515625	6696.857910	1187.821899	0.493219
689.046448	1178.719727	6635.418457	1262.914063	1.542954
689.373413	1158.240112	6558.050781	1167.342163	0.168562
689.700317	1103.627563	6535.295898	1249.260864	2.681189
690.027100	1142.311401	6348.703125	1199.199463	1.092658
690.353943	1117.280762	6498.887207	1228.781250	2.071881
690.680725	1103.627563	6462.479004	1199.199463	1.783440
691.007446	1108.178589	6205.345215	1246.985352	2.723214
691.334106	1069.494751	6173.487793	1219.679199	2.942489
691.660645	1108.178589	6096.120117	1171.893188	1.277373
691.987244	1151.413574	6139.354980	1171.893188	0.410582
692.313721	1062.668213	6034.681152	1178.719727	2.334095
692.640259	1096.801025	5907.251953	1167.342163	1.466414
692.966675	1103.627563	5875.394531	1203.750488	2.098236
693.293030	1117.280762	5934.558105	1183.270874	1.369863
693.619324	1126.382813	5850.363770	1244.709839	2.504816
693.945618	1133.209351	5820.782227	1231.056763	2.087379
694.271851	1099.076538	5750.241211	1228.781250	2.788650
694.598083	1121.831787	5631.914063	1203.750488	1.816346
694.924194	1128.658325	5759.343262	1208.301514	1.719901
695.250244	1169.617676	5804.853516	1210.577026	0.883652
695.576294	1101.352051	5802.578125	1192.372925	1.936109
695.902283	1121.831787	5641.016113	1206.026001	1.863040
696.228210	1101.352051	5666.046875	1249.260864	3.240278
696.554138	1096.801025	5825.333008	1169.617676	1.539942
696.879944	1108.178589	5745.689941	1105.903076	-0.049068
697.205750	1071.770264	5882.221191	1199.199463	2.649007
697.531433	1044.463989	5923.180664	1242.434326	4.057836
697.857178	1049.015137	5886.772461	1240.158813	3.951080
698.182739	1130.933838	6057.436523	1194.648438	1.293303
698.508423	1092.250000	6464.754395	1256.087524	3.049556
698.833984	1126.382813	6742.368164	1217.403687	1.620746
699.159485	1103.627563	6969.920410	1206.026001	1.745539
699.484924	1160.515625	7124.655762	1228.781250	1.144601
699.810303	1078.596802	7279.391113	1251.536499	2.788993
700.135681	1110.454102	7058.665527	1262.914063	2.563123
700.460999	1183.270874	7129.206543	1210.577026	0.459241
700.786255	1165.066650	7008.604004	1240.158813	1.285046
701.111450	1192.372925	6826.562500	1267.465088	1.332794
701.436646	1085.423462	6796.980469	1167.342163	1.434262
701.761719	1137.760376	6416.968750	1203.750488	1.250000
702.086792	1149.138062	6123.426270	1187.821899	0.777676
702.411865	1101.352051	6039.232422	1190.097412	1.797236
702.736816	1140.035889	5848.088379	1162.791138	0.483326
703.061646	1105.903076	5752.516602	1174.168701	1.469148
703.386536	1105.903076	5518.138184	1190.097412	1.908201
703.711365	1137.760376	5540.893066	1212.852539	1.705426
704.036194	1074.045776	5404.361816	1162.791138	2.049397
704.360901	1165.066650	5286.034668	1142.311401	-0.552182
704.685547	1108.178589	5142.677246	1169.617676	1.522843
705.010132	1146.862427	5124.472656	1190.097412	1.086959
705.334717	1042.188477	5097.166504	1196.923950	3.815939
705.659302	1092.250000	5060.758301	1185.546387	2.350918
705.983765	1101.352051	5081.237793	1180.995239	2.001143
706.308228	1108.178589	5017.523438	1146.862427	0.989522
706.632568	1165.066650	5063.033691	1190.097412	0.642149
706.956909	1046.739624	5056.207031	1194.648438	3.688989
707.281189	1099.076538	5049.380859	1215.128052	2.937787
707.605408	1128.658325	4983.390625	1244.709839	3.010624
707.929626	1151.413574	4937.880371	1094.525513	-1.502405
708.253784	1149.138062	5138.125977	1153.689087	0.114090
708.577820	1137.760376	4960.635254	1128.658325	-0.238094
708.901855	1094.525513	4969.737305	1226.505737	3.405755
709.225830	1076.321289	5022.074219	1180.995239	2.652826
709.549805	1158.240112	5058.482910	1119.556274	-0.991832
709.873718	1174.168701	5035.727539	1208.301514	0.883913
710.197510	1117.280762	5088.064453	1256.087524	3.495702
710.521362	1110.454102	5088.064453	1219.679199	2.745998
710.845093	1158.240112	5279.208496	1183.270874	0.607400
711.168701	1174.168701	5304.238770	1158.240112	-0.385674
711.492432	1153.689087	5392.984375	1203.750488	1.180890
711.816040	1167.342163	5443.045898	1135.484863	-0.745077
712.139587	1146.862427	5370.229004	1137.760376	-0.215516
712.463074	1158.240112	5322.443359	1171.893188	0.327868
712.786499	1146.862427	5440.770020	1135.484863	-0.264970
713.109924	1194.648438	5365.678223	1249.260864	1.309327
713.433350	1103.627563	5299.687988	1201.474976	2.331887
713.756592	1085.423462	5197.289551	1158.240112	1.770891
714.079834	1085.423462	5179.085449	1183.270874	2.390217
714.403015	1151.413574	5078.962402	1183.270874	0.811124
714.726196	1126.382813	5099.441895	1190.097412	1.603666
715.049255	1051.290649	5147.228027	1224.230225	4.222222
715.372375	1176.444214	5038.002930	1192.372925	0.412494
715.695435	1155.964600	5106.268555	1165.066650	0.230414
716.018311	1126.382813	5001.594727	1192.372925	1.702878
716.341248	1140.035889	5103.993164	1244.709839	2.640643
716.664063	1096.801025	5154.054688	1187.821899	2.243411
716.987000	1178.719727	5042.554199	1121.831787	-1.472318
717.309692	1165.066650	4865.063477	1217.403687	1.414516
717.632385	1153.689087	4972.013184	1206.026001	1.370678
717.955078	1064.943726	4956.084473	1196.923950	3.391813
718.277649	1135.484863	4776.318359	1174.168701	1.062500
718.600220	1130.933838	4751.287598	1183.270874	1.445633
718.922791	1194.648438	4803.624512	1215.128052	0.567463
719.245300	1183.270874	4610.205078	1180.995239	-0.066404
719.567688	1119.556274	4553.316895	1153.689087	0.994036
719.890015	1105.903076	4532.837402	1187.821899	2.390440
720.212341	1119.556274	4505.531250	1174.168701	1.612901
720.534607	1185.546387	4341.693848	1203.750488	0.576782
720.856873	1115.005249	4246.121582	1187.821899	2.325581
721.179016	1101.352051	4257.499512	1235.607788	4.253785
721.501160	1085.423462	4223.366699	1158.240112	2.320522
721.823242	1135.484863	4277.979004	1140.035889	0.144822
722.145264	1069.494751	4189.233887	1199.199463	4.157550
722.467224	1174.168701	4227.917480	1224.230225	1.639346
722.789185	1115.005249	4205.162598	1249.260864	4.344621
723.111023	1117.280762	4105.039551	1162.791138	1.523228
723.432861	1099.076538	4091.386475	1210.577026	3.726234
723.754578	1099.076538	4080.008789	1206.026001	3.587786
724.076294	1140.035889	4041.324951	1194.648438	1.882355
724.397949	1089.974487	3948.028564	1219.679199	4.538218
724.719666	1099.076538	4132.345703	1201.474976	3.375844
725.041260	1135.484863	4093.661865	1212.852539	2.615384
725.362732	1142.311401	4105.039551	1196.923950	1.843320
725.684265	1103.627563	4102.764160	1124.107300	0.682854
726.005676	1149.138062	4086.835449	1190.097412	1.394267
726.327087	1074.045776	4234.744141	1206.026001	4.175667
726.648438	1049.015137	4045.875977	1192.372925	4.783598
726.969666	1112.729614	4029.947266	1206.026001	3.198129
727.290894	1171.893188	4234.744141	1258.363037	2.823182
727.612061	1115.005249	4105.039551	1210.577026	3.196344
727.933228	1176.444214	4227.917480	1262.914063	2.833708
728.254395	1101.352051	4218.815430	1260.638550	5.109490
728.575378	1190.097412	4221.091309	1208.301514	0.600598
728.896301	1105.903076	4373.550781	1201.474976	2.924792
729.217285	1101.352051	4446.367676	1167.342163	1.972789
729.538147	1158.240112	4444.092285	1158.240112	0.000000
729.858948	1110.454102	4250.672852	1146.862427	1.159420
730.179810	1165.066650	4287.081055	1217.403687	1.676387
730.500549	1067.219238	4175.580566	1226.505737	5.124453
730.821228	1074.045776	4314.387207	1192.372925	3.651688
731.141846	1135.484863	4414.510254	1185.546387	1.526720
731.462402	1049.015137	4362.173340	1185.546387	4.120879
731.782898	1210.577026	4425.888184	1294.771362	2.618544
732.103455	1140.035889	4510.082031	1265.189575	3.713708
732.423889	1137.760376	4412.234863	1178.719727	1.250868
732.744263	1094.525513	4453.194336	1185.546387	2.710028
733.064636	1151.413574	4434.990234	1151.413574	0.000000
733.384888	1069.494751	4364.448730	1237.883301	5.110497
733.705200	1094.525513	4357.622559	1196.923950	3.138075
734.025330	1217.403687	4432.714355	1219.679199	0.070771
734.345520	1101.352051	4382.652832	1226.505737	3.814149
734.665527	1058.117188	4341.693848	1146.862427	2.702700
734.985596	1137.760376	4362.173340	1137.760376	0.000000
735.305542	1044.463989	4214.264648	1242.434326	6.245513
735.625549	1051.290649	4080.008789	1133.209351	2.704732
735.945435	1108.178589	4341.693848	1176.444214	2.111189
736.265259	1119.556274	4143.723145	1171.893188	1.730623
736.585083	1151.413574	3982.161377	1199.199463	1.688101
736.904785	1058.117188	4025.396240	1217.403687	5.368100
737.224426	1151.413574	3963.957275	1206.026001	1.941745
737.544128	1110.454102	3959.406250	1162.791138	1.837063
737.863708	1087.698975	4016.294189	1315.250977	7.770005
738.183289	1103.627563	3861.558838	1190.097412	3.135316
738.502808	1137.760376	4068.631104	1149.138062	0.388202
738.822205	1151.413574	4011.743164	1196.923950	1.591089
739.141541	1133.209351	3888.864990	1144.586914	0.412880
739.460938	1178.719727	4107.314941	1228.781250	1.709404
739.780212	1094.525513	4136.896973	1158.240112	2.094241
740.099426	1219.679199	4130.070313	1153.689087	-2.267397
740.418640	1119.556274	4004.916504	1206.026001	2.996843
740.737793	1083.147949	4045.875977	1228.781250	4.915514
741.056885	1089.974487	4020.845215	1185.546387	3.260871
741.375977	1101.352051	4109.590332	1151.413574	1.664147
741.694946	1151.413574	4155.101074	1244.709839	3.106058
742.013855	1160.515625	3988.988037	1194.648438	1.206758
742.332703	1117.280762	4016.294189	1246.985352	4.474094
742.651550	1171.893188	3827.426025	1206.026001	1.285347
742.970398	1112.729614	3745.507324	1251.536499	5.272260
743.289124	1119.556274	3850.181152	1265.189575	5.333332
743.607788	1180.995239	3684.068115	1244.709839	2.545455
743.926453	1083.147949	3829.701416	1219.679199	4.971003
744.245056	1194.648438	3788.742188	1315.250977	4.649120
744.563599	1162.791138	3686.343750	1290.220337	5.049595
744.882141	1108.178589	3702.272461	1251.536499	5.526320
745.200500	1044.463989	3624.904541	1242.434326	7.671959
745.518860	1176.444214	3636.282227	1194.648438	0.740058
745.837219	1133.209351	3615.802490	1224.230225	3.666363
746.155518	1069.494751	3704.547852	1258.363037	7.167532
746.473755	1155.964600	3583.945313	1331.179688	7.216494
746.791992	1155.964600	3538.434814	1262.914063	4.489016
747.110107	1110.454102	3579.394287	1237.883301	5.161292
747.428162	1140.035889	3581.669678	1256.087524	4.753032
747.746216	1126.382813	3554.363525	1324.353149	8.153703
748.064148	1080.872437	3579.394287	1240.158813	6.375224
748.382080	1124.107300	3731.854004	1342.557251	8.376963
748.700073	1174.168701	3611.251465	1294.771362	4.948648
749.017822	1128.658325	3643.108887	1246.985352	4.705880
749.335632	1155.964600	3577.118652	1269.740601	4.699247
749.653320	1110.454102	3622.629150	1221.954712	4.438409
749.971008	1203.750488	3684.068115	1221.954712	0.733947
750.288696	1144.586914	3640.833252	1369.863525	9.024614
750.606262	1112.729614	3529.332764	1276.567139	6.779662
750.923828	1121.831787	3656.761963	1294.771362	6.822262
751.241272	1064.943726	3611.251465	1235.607788	6.702414
751.558716	1149.138062	3558.914551	1303.873413	6.421150
751.876038	1137.760376	3492.924316	1276.567139	5.893720
752.193481	1135.484863	3599.874023	1287.944824	6.186522
752.510681	1096.801025	3508.853027	1340.281738	10.094339
752.827942	1126.382813	3422.383301	1363.036987	10.307236
753.145081	1083.147949	3602.149414	1251.536499	6.684734
753.462219	1089.974487	3574.843262	1312.975464	8.974357
753.779297	1162.791138	3472.444824	1410.822876	10.738914
754.096375	1167.342163	3474.720215	1340.281738	7.495070
754.413330	1196.923950	3458.791504	1292.495850	4.225353
754.730286	1119.556274	3522.506104	1306.148926	7.765150
755.047119	1124.107300	3588.496338	1360.761475	9.602955
755.363892	1101.352051	3465.618164	1310.699951	8.854668
755.680725	1196.923950	3474.720215	1401.720825	8.991009
755.997498	1144.586914	3385.974854	1322.077637	7.918787
756.314148	1180.995239	3397.352539	1326.628662	6.570846
756.630737	1226.505737	3345.015625	1433.578125	9.774436
756.947327	1169.617676	3376.872803	1424.476074	11.546395
757.263855	1119.556274	3440.587402	1342.557251	9.607841
757.580261	1108.178589	3442.863037	1401.720825	12.573100
757.896729	1206.026001	3315.433838	1401.720825	9.277241
758.213074	1128.658325	3411.005615	1365.312500	10.368895
758.529419	1124.107300	3472.444824	1415.373901	12.403098
758.845642	1144.586914	3449.689453	1369.863525	9.772954
759.161865	1076.321289	3442.863037	1340.281738	11.153847
759.478149	1140.035889	3470.169189	1454.057739	13.476562
759.794189	1142.311401	3549.812500	1483.639526	14.177694
760.110229	1130.933838	3602.149414	1508.670288	15.285451
760.426270	1074.045776	3638.557861	1399.445313	12.688555
760.742249	1196.923950	3479.271240	1458.608887	11.465606
761.058105	1137.760376	3659.037354	1492.741699	14.079427
761.374023	1083.147949	3517.955078	1517.772339	17.850464
761.689819	1087.698975	3513.404053	1508.670288	17.354595
762.005554	1101.352051	3599.874023	1531.425537	17.213116
762.321289	1121.831787	3486.097900	1467.710938	14.629451
762.636902	1046.739624	3593.047363	1586.037964	21.179623
762.952515	1108.178589	3622.629150	1570.109375	18.371042
763.268127	1112.729614	3661.312988	1554.180664	17.321428
763.583618	1101.352051	3740.956299	1615.619751	19.482758
763.899048	1105.903076	4080.008789	1563.282837	15.378733
764.214478	1140.035889	4687.572754	1786.283813	18.216806
764.529785	1074.045776	4912.849609	1806.763550	19.087139
764.845093	1117.280762	5012.972168	1929.641602	20.852802
765.160400	1190.097412	4862.788086	1763.528564	15.613380
765.475586	1055.841675	4726.256836	1881.855713	22.504650
765.790771	1069.494751	4705.776855	1768.079712	19.211517
766.105835	1128.658325	4453.194336	1761.253052	19.028059
766.420837	1103.627563	4357.622559	1731.671387	19.300699
766.735840	1133.209351	4205.162598	1724.844727	19.259258
767.050842	1108.178589	4016.294189	1683.885376	19.796556
767.365662	1151.413574	3950.304199	1608.793213	16.341461
767.680542	1078.596802	3688.619141	1638.375000	21.447256
767.995300	1108.178589	3688.619141	1674.783325	21.957676
768.309998	1110.454102	3636.282227	1638.375000	20.900904
768.624817	1103.627563	3649.935303	1667.956787	22.162649
768.939392	1192.372925	3390.525879	1690.711914	22.670807
769.254028	1080.872437	3627.180176	1679.334351	23.503126
769.568481	1135.484863	3492.924316	1667.956787	22.586876
769.882935	1092.250000	3517.955078	1636.099487	22.420263
770.197388	1099.076538	3397.352539	1549.629639	19.603960
770.511841	1115.005249	3351.842041	1631.548462	23.092573
770.826172	1096.801025	3306.331787	1631.548462	24.201855
771.140442	1023.984375	3299.505127	1572.384888	24.100000
771.454651	1117.280762	3190.280273	1597.415649	23.161360
771.768860	1119.556274	3215.310791	1586.037964	22.258413
772.082886	1101.352051	3267.647949	1620.170776	23.949577
772.397034	1092.250000	3283.576416	1633.823975	24.714436
772.711060	1060.392700	3197.106689	1645.201538	27.369543
773.025024	1058.117188	3258.545898	1661.130127	27.404339
773.338928	1128.658325	3244.892578	1581.486938	21.397848
773.652771	1140.035889	3149.320801	1661.130127	25.934313
773.966614	1142.311401	3008.238525	1613.344238	25.243904
774.280457	1092.250000	3021.891602	1597.415649	26.179247
774.594116	1121.831787	3019.616211	1624.721802	26.498796
774.907776	1130.933838	3003.687500	1613.344238	25.759417
775.221375	1112.729614	3026.442627	1611.068726	26.040430
775.534912	1078.596802	2978.656738	1647.477051	29.940121
775.848450	1169.617676	3083.330566	1672.507813	26.278244
776.161926	1112.729614	3042.371338	1615.619751	26.061321
776.475342	1115.005249	3035.544678	1599.691162	25.236967
776.788696	1101.352051	2910.391113	1626.997314	29.056601
777.101990	1049.015137	3008.238525	1590.588989	27.642271
777.415283	1121.831787	3065.126465	1515.496826	20.257608
777.728516	1167.342163	2937.697266	1649.752563	27.249357
778.041626	1174.168701	2951.350586	1604.242188	24.199745
778.354736	1158.240112	2851.227539	1611.068726	26.747311
778.667725	1053.566162	2967.279053	1620.170776	29.607609
778.980774	1153.689087	2953.625977	1556.456177	22.376734
779.293640	1151.413574	3021.891602	1590.588989	23.479315
779.606567	1128.658325	2949.074951	1592.864502	25.499996
779.919434	1101.352051	2873.982666	1613.344238	28.883186
780.232239	1101.352051	2889.911377	1647.477051	30.534351
780.544983	1142.311401	2921.768799	1570.109375	24.040922
780.857666	1096.801025	2880.809326	1606.517700	28.571430
781.170227	1133.209351	2819.370361	1547.354126	24.561401
781.482849	1078.596802	2801.166016	1588.313477	29.590490
781.795410	1117.280762	2705.594238	1606.517700	30.802292
782.107910	1108.178589	2921.768799	1601.966675	27.227104
782.420288	1167.342163	2905.840088	1590.588989	24.345547
782.732666	1151.413574	2719.247314	1640.650513	31.204643
783.044983	1210.577026	2712.420898	1588.313477	25.151512
783.357300	1105.903076	2753.380127	1652.028076	33.149174
783.669495	1135.484863	2682.839111	1590.588989	29.411760
783.981689	1121.831787	2712.420898	1572.384888	28.326178
784.293762	1233.332275	2737.451416	1572.384888	22.541607
784.605835	1099.076538	2726.073975	1674.783325	35.384617
784.917908	1162.791138	2696.492188	1538.252075	24.480713
785.229858	1167.342163	2587.267090	1483.639526	22.275640
785.541748	1185.546387	2712.420898	1540.527588	23.248878
785.853577	1140.035889	2635.052979	1538.252075	26.636230
786.165405	1146.862427	2616.848877	1504.119263	24.303410
786.477173	1074.045776	2548.583252	1579.211426	34.259262
786.788879	1085.423462	2696.492188	1501.843750	25.847456
787.100525	1115.005249	2676.012451	1615.619751	32.069969
787.412109	1135.484863	2641.879639	1561.007324	28.247738
787.723694	1126.382813	2653.257324	1431.302612	19.970194
788.035156	1074.045776	2660.083740	1454.057739	23.959827
788.346558	1103.627563	2732.900391	1435.853638	20.391064
788.658081	1128.658325	2646.430664	1583.762451	29.985006
788.969360	1096.801025	2776.135498	1533.701050	26.016260
789.280640	1128.658325	2851.227539	1597.415649	27.212685
789.591919	1135.484863	2828.472412	1565.558350	25.403229
789.903076	1096.801025	2867.156250	1563.282837	26.349617
790.214172	1133.209351	2958.177002	1667.956787	29.301748
790.525269	1049.015137	2807.992676	1535.976563	27.684345
790.836365	1108.178589	2666.910400	1670.232300	36.058399
791.147339	1096.801025	2764.757813	1590.588989	29.604362
791.458191	1137.760376	2598.644775	1524.598877	26.479748
791.769104	1124.107300	2569.062988	1581.486938	31.653542
792.079895	1083.147949	2553.134277	1535.976563	30.804955
792.390686	1210.577026	2553.134277	1581.486938	27.627121
792.701416	1199.199463	2580.440674	1513.221313	22.734758
793.012085	1169.617676	2537.205811	1497.292725	23.960068
793.322693	1142.311401	2430.256104	1529.150024	30.035343
793.633240	1130.933838	2498.521729	1504.119263	27.287857
793.943787	1194.648438	2471.215576	1469.986450	21.568628
794.254272	1153.689087	2507.624023	1488.190552	24.705873
794.564636	1137.760376	2503.072998	1506.394775	27.000000
794.875000	1074.045776	2525.828125	1538.252075	31.974924
795.185303	1153.689087	2425.705078	1526.874512	29.338108
795.495544	1089.974487	2400.674561	1524.598877	33.159714
795.805786	1103.627563	2473.491211	1524.598877	30.730892
796.115906	1149.138062	2516.726074	1556.456177	29.783686
796.426025	1105.903076	2446.184814	1472.261963	27.334469
796.736023	1071.770264	2635.052979	1520.047852	28.675402
797.045959	1078.596802	2682.839111	1563.282837	30.212770
797.355896	1071.770264	2528.103516	1588.313477	35.468750
797.665833	1121.831787	2616.848877	1570.109375	29.984779
797.975708	1169.617676	2625.950928	1588.313477	28.750000
798.285461	1110.454102	2482.593262	1508.670288	29.021561
798.595154	1092.250000	2425.705078	1529.150024	32.764511
798.904846	1094.525513	2471.215576	1554.180664	33.388428
799.214478	1128.658325	2425.705078	1608.793213	37.017548
799.524109	1210.577026	2450.735840	1508.670288	24.036701
799.833557	1128.658325	2446.184814	1495.017212	27.806566
800.143005	1185.546387	2441.633789	1554.180664	29.347820
800.452393	1108.178589	2418.878662	1549.629639	33.680553
800.761780	1135.484863	2407.500977	1485.915039	27.549192
801.071106	1174.168701	2471.215576	1495.017212	24.736847
801.380371	1076.321289	2393.847900	1476.812988	30.397238
801.689575	1137.760376	2346.062012	1576.935913	36.346516
801.998718	1117.280762	2493.970703	1469.986450	25.619835
802.307800	1169.617676	2311.929199	1479.088501	27.091631
802.616882	1108.178589	2380.194824	1515.496826	32.021465
802.925903	1128.658325	2389.296875	1467.710938	26.895308
803.234863	1174.168701	2346.062012	1424.476074	21.359228
803.543701	1099.076538	2377.919189	1513.221313	32.384342
803.852539	1108.178589	2316.480225	1504.119263	32.768364
804.161316	1062.668213	2275.520752	1515.496826	37.335835
804.470032	1117.280762	2264.143311	1433.578125	27.579361
804.778809	1119.556274	2257.316650	1472.261963	30.999998
805.087341	1133.209351	2361.990479	1529.150024	32.222229
805.395935	1192.372925	2361.990479	1481.364014	24.708170
805.704468	1060.392700	2412.052002	1460.884399	29.629633
806.012939	1101.352051	2261.867676	1481.364014	32.745098
806.321350	1183.270874	2316.480225	1508.670288	28.714855
806.629761	1117.280762	2359.715088	1501.843750	30.952379
806.938049	1099.076538	2380.194824	1515.496826	32.504436
807.246277	1101.352051	2402.949951	1535.976563	33.391613
807.554504	1069.494751	2270.969727	1517.772339	37.310604
807.862671	1135.484863	2325.582275	1545.078613	34.416824
808.170715	1165.066650	2421.154053	1451.782227	22.826084
808.478821	1169.617676	2302.827148	1495.017212	28.714863
808.786804	1137.760376	2398.398926	1563.282837	33.754517
809.094727	1140.035889	2402.949951	1508.670288	29.189192
809.402649	1146.862427	2346.062012	1417.649414	22.580645
809.710510	1146.862427	2316.480225	1497.292725	29.961094
810.018311	1176.444214	2148.091553	1526.874512	36.065586
810.326050	1167.342163	2200.428711	1388.067749	21.365643
810.633667	1153.689087	2209.530762	1506.394775	33.405167
810.941345	1142.311401	2236.836914	1454.057739	28.482327
811.248901	1119.556274	2161.744873	1499.568237	36.462879
811.556396	1242.434326	2261.867676	1508.670288	26.116074
811.863892	1153.689087	2189.051025	1419.924927	25.714277
812.171326	1094.525513	2123.060791	1542.803101	43.584076
812.478699	1058.117188	2204.979736	1422.200562	31.746035
812.786011	1099.076538	2207.255127	1469.986450	33.470230
813.093262	1194.648438	2150.367188	1417.649414	23.333326
813.400391	1080.872437	2111.683350	1467.710938	37.527592
813.707642	1135.484863	2209.530762	1356.210449	20.550852
814.014709	1133.209351	2118.509766	1413.098389	28.406467
814.321716	1126.382813	2179.948975	1449.506714	30.669540
814.628723	1119.556274	2127.612061	1403.996338	28.216700
814.935669	1071.770264	2152.642578	1388.067749	29.263168
815.242554	1133.209351	2111.683350	1401.720825	27.441860
815.549438	1089.974487	2152.642578	1415.373901	30.620983
815.856201	1174.168701	2082.101563	1408.547363	25.814537
816.162964	1055.841675	2093.479248	1392.618774	32.456139
816.469604	1167.342163	2136.714111	1406.271851	24.647886
816.776184	1158.240112	2113.958740	1538.252075	39.761909
817.082825	1119.556274	2166.295898	1422.200562	28.913044
817.389343	1192.372925	2166.295898	1438.129150	25.233641
817.695801	1074.045776	2072.999512	1413.098389	33.940773
818.002197	1080.872437	2225.459229	1485.915039	35.387669
818.308533	1124.107300	2170.846924	1460.884399	32.173912
818.614868	1135.484863	2138.989502	1440.404663	30.385490
818.921143	1210.577026	2207.255127	1488.190552	27.853880
819.227356	1128.658325	2195.877686	1497.292725	34.541576
819.533447	1080.872437	2218.632813	1561.007324	42.200001
819.839539	1110.454102	2314.204590	1492.741699	31.758043
820.145569	1099.076538	2407.500977	1440.404663	26.086958
820.451538	1128.658325	2387.021240	1488.190552	28.571426
820.757568	1069.494751	2532.654541	1681.609863	41.835152
821.063416	1121.831787	2678.288086	1601.966675	30.847952
821.369263	1130.933838	2819.370361	1604.242188	28.032345
821.675049	1140.035889	2764.757813	1654.303589	31.652660
821.980713	1103.627563	3033.269287	1722.569214	32.075470
822.286438	1130.933838	3308.607178	1827.243164	31.974920
822.592102	983.024963	4059.529053	1981.978638	32.470417
822.897583	1128.658325	5579.577148	2555.409912	32.055214
823.203125	1142.311401	8073.547852	3376.872803	32.239002
823.508545	1085.423462	9791.566406	3809.221924	31.285938
823.813965	1165.066650	10553.865234	4048.151611	30.707708
824.119263	1171.893188	9673.239258	3718.200928	29.951818
824.424622	1096.801025	8196.425781	3349.566650	31.730770
824.729858	1155.964600	6963.093750	3033.269287	32.327587
825.035095	1121.831787	6105.222168	2687.390137	31.415525
825.340149	1069.494751	5529.515625	2462.113525	31.224489
825.645264	1151.413574	4956.084473	2289.173828	29.904301
825.950256	1105.903076	4667.093262	2186.775391	30.351435
826.255310	1171.893188	4225.642090	2079.825928	29.731741
826.560242	1171.893188	4059.529053	1941.019287	26.635149
826.865112	1062.668213	3932.099854	1913.713013	29.659002
827.169922	1103.627563	3765.986816	1970.601074	32.564106
827.474670	1092.250000	3836.528076	1977.427612	32.255390
827.779419	1233.332275	4273.428223	2116.234375	29.041916
828.084045	1060.392700	4735.358887	2261.867676	32.693497
828.388672	1149.138062	5229.146973	2416.603027	31.065250
828.693176	1169.617676	5258.728516	2402.949951	30.161381
828.997681	1112.729614	4815.001953	2161.744873	28.334362
829.302124	1208.301514	4077.733398	2091.203613	30.769230
829.606567	1096.801025	3750.058350	2025.213501	34.991421
829.910828	1094.525513	3502.026611	1756.702026	27.504725
830.215149	1096.801025	3183.453613	1699.814087	28.898584
830.519348	1162.791138	3033.269287	1688.436401	28.102186
830.823547	1149.138062	2858.054199	1590.588989	25.832216
831.127686	1144.586914	2691.941162	1567.833862	27.352945
831.431763	1067.219238	2603.195801	1574.660400	33.037037
831.735779	1060.392700	2493.970703	1535.976563	33.174606
832.039734	1115.005249	2396.123291	1533.701050	32.682064
832.343628	1119.556274	2393.847900	1456.333252	26.428564
832.647461	1112.729614	2357.439453	1492.741699	30.530174
832.951233	1037.637451	2389.296875	1458.608887	31.144787
833.255127	1151.413574	2387.021240	1540.527588	31.491713
833.558777	1133.209351	2348.337402	1481.364014	28.651686
833.862366	1124.107300	2391.572266	1499.568237	29.622984
834.165955	1119.556274	2619.124512	1629.272949	33.990894
834.469482	1146.862427	3015.064941	1749.875488	32.277714
834.773010	1187.821899	3431.485352	1788.559326	26.774845
835.076416	1176.444214	3659.037354	1877.304688	28.230982
835.379822	1210.577026	3643.108887	1852.273926	26.379795
835.683105	1146.862427	3408.730225	1772.630737	27.666000
835.986389	1174.168701	3203.933350	1745.324463	28.139013
836.289612	1185.546387	2914.942139	1702.089600	29.868422
836.592773	1155.964600	2746.553711	1583.762451	26.895559
836.895874	1103.627563	2598.644775	1538.252075	29.071539
837.198914	1171.893188	2541.756836	1540.527588	26.910299
837.501892	1176.444214	2380.194824	1513.221313	27.977316
837.804871	1115.005249	2355.164063	1515.496826	32.293571
838.107666	1140.035889	2243.663574	1524.598877	34.845356
838.410583	1112.729614	2118.509766	1472.261963	35.746613
838.713379	1055.841675	2138.989502	1385.792114	30.462179
839.016052	1124.107300	2111.683350	1319.802124	19.815672
839.318787	1083.147949	1913.713013	1360.761475	33.424656
839.621338	1117.280762	1975.152100	1360.761475	28.381962
839.923889	1110.454102	1847.722900	1356.210449	33.333344
840.226440	1146.862427	1977.427612	1306.148926	19.178085
840.528931	1135.484863	1970.601074	1356.210449	26.430523
840.831299	1142.311401	2136.714111	1415.373901	27.459951
841.133606	1187.821899	2168.571289	1481.364014	29.930389
841.435913	1176.444214	2161.744873	1424.476074	25.173216
841.738220	1119.556274	2104.856689	1429.027100	31.408779
842.040405	1185.546387	2125.336426	1422.200562	25.181601
842.342529	1167.342163	2054.795166	1440.404663	30.769236
842.644592	1053.566162	1879.580200	1392.618774	41.046833
842.946594	1153.689087	1852.273926	1385.792114	33.224743
843.248596	1130.933838	1895.508789	1369.863525	31.250002
843.550598	1137.760376	1872.753662	1356.210449	29.721371
843.852478	1133.209351	1809.039063	1283.393677	22.222214
844.154236	1130.933838	1849.998413	1319.802124	26.265831
844.455994	1087.698975	1718.018188	1340.281738	40.072197
844.757690	1046.739624	1731.671387	1231.056763	26.910292
845.059326	1103.627563	1738.497925	1251.536499	23.297503
845.360962	1074.045776	1706.640625	1244.709839	26.978415
845.662476	1128.658325	1697.538574	1237.883301	19.199995
845.963989	1062.668213	1692.987427	1253.812012	30.324921
846.265381	1115.005249	1702.089600	1294.771362	30.620152
846.566772	1119.556274	1586.037964	1246.985352	27.317059
846.868042	1060.392700	1642.926025	1294.771362	40.234379
847.169373	1201.474976	1722.569214	1249.260864	9.170297
847.470581	1187.821899	1663.405762	1251.536499	13.397132
847.771729	1094.525513	1656.579102	1169.617676	13.360321
848.072815	1140.035889	1595.140137	1208.301514	14.999997
848.373901	1115.005249	1570.109375	1269.740601	33.999989
848.674866	1126.382813	1545.078613	1233.332275	25.543476
848.975891	1124.107300	1601.966675	1203.750488	16.666658
849.276794	1149.138062	1624.721802	1231.056763	17.224874
849.577637	1053.566162	1595.140137	1178.719727	23.109228
849.878357	1099.076538	1570.109375	1212.852539	24.154579
850.179077	1140.035889	1565.558350	1235.607788	22.459896
850.479736	1110.454102	1631.548462	1201.474976	17.467255
850.780396	1130.933838	1595.140137	1228.781250	21.078432
851.080994	1144.586914	1581.486938	1185.546387	9.375022
851.381470	1094.525513	1604.242188	1192.372925	19.196432
851.681946	1074.045776	1510.945801	1217.403687	32.812519
851.982361	1140.035889	1574.660400	1233.332275	21.465975
852.282715	1162.791138	1581.486938	1226.505737	15.217397
852.583008	1121.831787	1647.477051	1237.883301	22.077915
852.883240	1190.097412	1631.548462	1303.873413	25.773186
853.183411	1153.689087	1574.660400	1315.250977	38.378361
853.483521	1153.689087	1545.078613	1199.199463	11.627898
853.783630	1092.250000	1617.895264	1228.781250	25.974028
854.083679	1210.577026	1567.833862	1210.577026	0.000000
854.383667	1099.076538	1615.619751	1185.546387	16.740099
854.683533	1174.168701	1535.976563	1158.240112	-4.402499
854.983337	1085.423462	1586.037964	1297.046875	42.272728
855.283203	1137.760376	1565.558350	1167.342163	6.914896
855.582886	1158.240112	1522.323364	1224.230225	18.125006
855.882629	1096.801025	1549.629639	1251.536499	34.170868
856.182312	1058.117188	1513.221313	1310.699951	55.499992
856.481873	1064.943726	1565.558350	1185.546387	24.090918
856.781372	1121.831787	1465.435425	1246.985352	36.423817
857.080872	1149.138062	1447.231201	1231.056763	27.480907
857.380310	1112.729614	1556.456177	1176.444214	14.358978
857.679688	1080.872437	1545.078613	1140.035889	12.745081
857.979004	1085.423462	1581.486938	1165.066650	16.055040
858.278259	1076.321289	1581.486938	1244.709839	33.333332
858.577454	1130.933838	1533.701050	1199.199463	16.949152
858.876648	1144.586914	1522.323364	1174.168701	7.831330
859.175720	1146.862427	1588.313477	1158.240112	2.577338
859.474792	1167.342163	1510.945801	1217.403687	14.569555
859.773743	1135.484863	1506.394775	1231.056763	25.766876
860.072693	1187.821899	1526.874512	1224.230225	10.738253
860.371521	1167.342163	1572.384888	1221.954712	13.483157
860.670349	1144.586914	1506.394775	1240.158813	26.415098
860.969116	1219.679199	1517.772339	1210.577026	-3.053466
861.267883	1126.382813	1495.017212	1183.270874	15.432109
861.566589	1160.515625	1501.843750	1242.434326	23.999985
861.865112	1146.862427	1488.190552	1165.066650	5.333350
862.163635	1103.627563	1617.895264	1190.097412	16.814171
862.462158	1074.045776	1417.649414	1185.546387	32.450359
862.760620	1128.658325	1513.221313	1217.403687	23.076939
863.059021	1071.770264	1565.558350	1192.372925	24.423971
863.357361	1101.352051	1495.017212	1199.199463	24.855492
863.655640	1142.311401	1538.252075	1199.199463	14.367825
863.953857	1174.168701	1549.629639	1183.270874	2.424266
864.251953	1126.382813	1565.558350	1199.199463	16.580307
864.550110	1194.648438	1429.027100	1258.363037	27.184471
864.848206	1158.240112	1510.945801	1269.740601	31.612898
865.146179	1101.352051	1515.496826	1199.199463	23.626379
865.444092	1126.382813	1547.354126	1231.056763	24.864866
865.741943	1101.352051	1524.598877	1201.474976	23.655918
866.039795	1124.107300	1567.833862	1180.995239	12.820495
866.337646	1153.689087	1463.159912	1221.954712	22.058825
866.635376	1133.209351	1558.731689	1210.577026	18.181812
866.933044	1064.943726	1490.466064	1165.066650	23.529417
867.230652	1110.454102	1574.660400	1262.914063	32.843147
867.528198	1121.831787	1561.007324	1124.107300	0.518133
867.825745	1094.525513	1551.905151	1299.322388	44.776123
868.123230	1146.862427	1465.435425	1210.577026	20.000000
868.420593	1096.801025	1474.537476	1210.577026	30.120472
868.717896	1174.168701	1526.874512	1269.740601	27.096775
869.015198	1085.423462	1465.435425	1178.719727	24.550877
869.312439	1119.556274	1474.537476	1219.679199	28.205133
869.609619	1149.138062	1526.874512	1235.607788	22.891550
869.906738	1155.964600	1442.680176	1149.138062	-2.380944
870.203796	1039.912964	1433.578125	1210.577026	43.352596
870.500854	1128.658325	1508.670288	1187.821899	15.568871
870.797791	1110.454102	1542.803101	1251.536499	32.631599
871.094666	1135.484863	1526.874512	1165.066650	7.558143
871.391602	1094.525513	1447.231201	1142.311401	13.548375
871.688293	1124.107300	1485.915039	1215.128052	25.157215
871.985107	1153.689087	1538.252075	1297.046875	37.278103
872.281738	1146.862427	1576.935913	1165.066650	4.232817
872.578369	1105.903076	1490.466064	1196.923950	23.668652
872.874939	1128.658325	1506.394775	1228.781250	26.506027
873.171509	1153.689087	1485.915039	1126.382813	-8.219188
873.467957	1112.729614	1479.088501	1242.434326	35.403728
873.764343	1044.463989	1561.007324	1165.066650	23.348024
874.060669	1149.138062	1524.598877	1196.923950	12.727263
874.356995	1067.219238	1456.333252	1237.883301	43.859653
874.653198	1085.423462	1444.955688	1235.607788	41.772144
874.949463	1060.392700	1476.812988	1253.812012	46.448101
875.245544	1137.760376	1488.190552	1128.658325	-2.597394
875.541626	1167.342163	1508.670288	1194.648438	8.000008
875.837646	1192.372925	1549.629639	1237.883301	12.738844
876.133606	1201.474976	1508.670288	1199.199463	-0.740738
876.429565	1199.199463	1510.945801	1235.607788	11.678830
876.725403	1110.454102	1533.701050	1171.893188	14.516132
877.021179	1153.689087	1579.211426	1237.883301	19.786085
877.316956	1140.035889	1490.466064	1180.995239	11.688306
877.612610	1110.454102	1563.282837	1249.260864	30.653259
877.908203	1105.903076	1533.701050	1240.158813	31.382977
878.203857	1067.219238	1558.731689	1297.046875	46.759270
878.499390	1105.903076	1542.803101	1178.719727	16.666662
878.794800	1128.658325	1476.812988	1178.719727	14.379069
879.090271	1089.974487	1613.344238	1185.546387	18.260876
879.385559	1110.454102	1504.119263	1178.719727	17.341038
879.680847	1051.290649	1692.987427	1187.821899	21.276600
879.976196	1083.147949	1672.507813	1249.260864	28.185312
880.271301	1137.760376	1758.977539	1208.301514	11.355310
880.566467	1137.760376	1736.222412	1301.597900	27.376427
880.861572	1146.862427	1770.355225	1249.260864	16.423355
881.156555	1103.627563	2018.386963	1399.445313	32.338310
881.451477	1151.413574	2145.816162	1363.036987	21.281462
881.746460	1087.698975	2666.910400	1576.935913	30.979826
882.041321	1176.444214	3390.525879	1856.824951	30.729706
882.336121	1185.546387	4084.559814	1979.703125	27.394035
882.630798	1128.658325	4689.848145	2195.877686	29.968056
882.925537	1069.494751	4637.511230	2195.877686	31.568882
883.220215	1146.862427	4387.204102	2084.376953	28.932581
883.514771	1085.423462	4196.060547	1936.468262	27.359179
883.809326	1080.872437	3827.426025	1927.366089	30.820211
884.103760	1142.311401	3590.771729	1777.181763	25.929369
884.398132	1108.178589	3408.730225	1806.763550	30.365974
884.692505	1140.035889	3144.769775	1681.609863	27.014757
884.986816	1130.933838	2949.074951	1597.415649	25.657074
885.281067	1078.596802	2844.401123	1588.313477	28.865978
885.575256	1083.147949	2660.083740	1549.629639	29.581528
885.869385	1149.138062	2393.847900	1444.955688	23.765991
886.163452	1140.035889	2291.449463	1403.996338	22.924904
886.457458	1094.525513	2095.754639	1401.720825	30.681820
886.751465	1169.617676	2102.581299	1438.129150	28.780487
887.045410	1203.750488	2007.009399	1381.241089	22.096313
887.339233	1153.689087	1897.784302	1281.118164	17.125372
887.632996	1190.097412	1774.906250	1394.894287	35.019455
887.926758	1119.556274	1722.569214	1278.842651	26.415085
888.220398	1142.311401	1774.906250	1237.883301	15.107916
888.514099	1144.586914	1663.405762	1226.505737	15.789485
888.807678	1233.332275	1711.191650	1171.893188	-12.857148
889.101196	1146.862427	1611.068726	1276.567139	27.941179
889.394653	1117.280762	1611.068726	1246.985352	26.267263
889.688049	1096.801025	1540.527588	1251.536499	34.871807
889.981384	1142.311401	1583.762451	1194.648438	11.855682
890.274719	1178.719727	1481.364014	1183.270874	1.503794
890.567932	1183.270874	1488.190552	1203.750488	6.716396
>>>>>End Processed Spectral Data<<<<<
