Jaz Data File
++++++++++++++++++++++++++++++++++++
Date: Wed Feb 07 06:47:36 2024
User: jaz
Dark Spectrum Present: Yes
Reference Spectrum Present: Yes
Processed Spectrum Present: Yes
Spectrometers: JAZA3692
Integration Time (usec): 47000 (JAZA3692)
Spectra Averaged: 1 (JAZA3692)
Boxcar Smoothing: 0 (JAZA3692)
Correct for Electrical Dark: No (JAZA3692)
Strobe/Lamp Enabled: Yes (JAZA3692)
Correct for Detector Non-linearity: No (JAZA3692)
Correct for Stray Light: No (JAZA3692)
Number of Pixels in Processed Spectrum: 2048
>>>>>Begin Processed Spectral Data<<<<<
W	D	R	S	P
190.244385	0.000000	0.000000	0.000000	0.000000
190.627136	0.000000	0.000000	0.000000	0.000000
191.009842	1044.463989	1105.903076	985.300537	-96.296112
191.392532	964.820801	1023.984375	1035.361938	119.230690
191.775177	1033.086426	971.647400	1023.984375	14.814771
192.157791	1092.250000	1023.984375	1014.882263	113.333374
192.540390	1117.280762	1112.729614	1078.596802	849.982544
192.922943	1119.556274	1058.117188	1030.810913	144.444473
193.305481	1064.943726	1151.413574	1042.188477	-26.315819
193.687958	1089.974487	1037.637451	1062.668213	52.173904
194.070419	1162.791138	1089.974487	1021.708862	193.750015
194.452866	1060.392700	1130.933838	962.545288	-138.709717
194.835251	1115.005249	1117.280762	1069.494751	-2000.010742
195.217621	1049.015137	1049.015137	1076.321289	0.000000
195.599960	1033.086426	1105.903076	1042.188477	12.499958
195.982254	1158.240112	1094.525513	1003.504700	242.857071
196.364517	1094.525513	1144.586914	1069.494751	-50.000122
196.746750	1101.352051	1167.342163	1096.801025	-6.896526
197.128952	1119.556274	1060.392700	969.371887	253.846039
197.511139	1137.760376	1055.841675	1026.259888	136.111145
197.893280	1101.352051	1021.708862	1058.117188	54.285702
198.275391	1117.280762	1076.321289	1064.943726	127.777611
198.657471	1128.658325	1069.494751	1053.566162	126.922966
199.039520	989.851563	1108.178589	1049.015137	50.000053
199.421539	1089.974487	1087.698975	1053.566162	1600.005371
199.803513	1099.076538	1039.912964	1096.801025	3.846138
200.185471	1017.157776	1140.035889	1078.596802	49.999973
200.567383	1053.566162	1124.107300	960.269775	-132.258133
200.949265	1087.698975	1094.525513	1099.076538	166.666672
201.331131	1042.188477	1128.658325	1085.423462	50.000072
201.712967	1049.015137	1069.494751	978.473938	-344.445923
202.094742	1105.903076	1115.005249	1085.423462	-224.996979
202.476517	1128.658325	1135.484863	1101.352051	-400.001801
202.858231	1128.658325	1055.841675	1017.157776	153.125076
203.239944	1071.770264	1144.586914	998.953613	-100.000000
203.621582	1137.760376	1026.259888	1080.872437	51.020351
204.003235	1108.178589	1037.637451	1019.433350	125.806366
204.384827	1060.392700	1053.566162	1076.321289	-233.333328
204.766388	1055.841675	1142.311401	1055.841675	0.000000
205.147934	1092.250000	1105.903076	960.269775	-966.670227
205.529449	1064.943726	1162.791138	1049.015137	-16.279009
205.910904	1140.035889	1124.107300	1051.290649	557.144409
206.292343	1037.637451	1151.413574	1080.872437	38.000053
206.673767	1044.463989	1112.729614	1023.984375	-29.999893
207.055115	1044.463989	1137.760376	1074.045776	31.707323
207.436462	1105.903076	1201.474976	1051.290649	-57.142765
207.817780	1078.596802	1119.556274	1044.463989	-83.333138
208.199051	1142.311401	1089.974487	1035.361938	204.348053
208.580307	1076.321289	1140.035889	1053.566162	-35.714149
208.961517	1094.525513	1064.943726	996.678101	330.769104
209.342712	1060.392700	1151.413574	992.127075	-74.999969
209.723846	1074.045776	1112.729614	951.167725	-317.647003
210.104965	1053.566162	1062.668213	1044.463989	-100.001343
210.486069	1074.045776	1096.801025	1060.392700	-59.999680
210.867111	1074.045776	1117.280762	1058.117188	-36.841896
211.248123	1085.423462	1112.729614	1051.290649	-125.000450
211.629120	1069.494751	1146.862427	1076.321289	8.823502
212.010071	980.749451	1094.525513	1026.259888	40.000011
212.390991	1026.259888	1119.556274	967.096313	-63.414646
212.771881	1058.117188	1171.893188	1026.259888	-28.000017
213.152756	1062.668213	1046.739624	1010.331238	328.572571
213.533569	998.953613	1085.423462	980.749451	-21.052612
213.914368	1030.810913	1087.698975	1053.566162	40.000042
214.295135	1067.219238	1108.178589	1008.055725	-144.444458
214.675858	1087.698975	1126.382813	1017.157776	-182.353149
215.056549	1103.627563	1151.413574	1014.882263	-185.713974
215.437225	1010.331238	1103.627563	989.851563	-21.951214
215.817841	1101.352051	1080.872437	1033.086426	333.334534
216.198441	1019.433350	1142.311401	1012.606750	-5.555589
216.579025	1119.556274	1074.045776	930.687988	414.999390
216.959549	1112.729614	1112.729614	1028.535400	0.000000
217.340057	1021.708862	1115.005249	1058.117188	39.024368
217.720535	1105.903076	1028.535400	1037.637451	88.235329
218.100967	1083.147949	1060.392700	955.718750	559.999146
218.481369	1096.801025	1049.015137	1069.494751	57.142967
218.861740	1019.433350	1067.219238	1096.801025	161.904861
219.242065	1060.392700	1103.627563	1067.219238	15.789429
219.622391	1064.943726	1089.974487	1094.525513	118.181732
220.002670	1055.841675	1137.760376	1078.596802	27.777695
220.382919	1092.250000	1128.658325	1067.219238	-68.750107
220.763123	1049.015137	1187.821899	1026.259888	-16.393473
221.143295	1028.535400	1121.831787	1126.382813	104.878029
221.523453	1037.637451	1110.454102	1042.188477	6.249979
221.903549	1135.484863	1087.698975	1071.770264	133.333496
222.283630	1096.801025	1055.841675	1014.882263	200.000153
222.663696	1085.423462	1051.290649	1094.525513	-26.666571
223.043701	1144.586914	1119.556274	1021.708862	490.910553
223.423676	1096.801025	1112.729614	1067.219238	-185.715057
223.803635	1026.259888	1071.770264	973.922913	-115.000092
224.183548	1046.739624	1117.280762	998.953613	-67.742050
224.563431	1083.147949	1096.801025	1062.668213	-150.000900
224.943283	1087.698975	1108.178589	1076.321289	-55.556152
225.323105	1130.933838	1105.903076	1067.219238	254.545181
225.702881	1023.984375	1096.801025	1064.943726	56.249981
226.082642	1030.810913	1135.484863	1008.055725	-21.739113
226.462357	1042.188477	1178.719727	1005.780212	-26.666616
226.842041	1083.147949	1099.076538	1008.055725	-471.430481
227.221695	1133.209351	1092.250000	1030.810913	250.000153
227.601318	1062.668213	1133.209351	1001.229126	-87.096817
227.980911	960.269775	1187.821899	996.678101	15.999993
228.360474	1092.250000	1187.821899	1019.433350	-76.190437
228.739990	1033.086426	1167.342163	1028.535400	-3.389818
229.119476	1124.107300	1240.158813	987.576050	-117.647110
229.498932	1092.250000	1265.189575	1078.596802	-7.894780
229.878372	1105.903076	1299.322388	1094.525513	-5.882331
230.257736	1080.872437	1299.322388	1049.015137	-14.583341
230.637115	998.953613	1363.036987	1023.984375	6.875008
231.016449	1071.770264	1374.414551	1046.739624	-8.270647
231.395737	1089.974487	1385.792114	1008.055725	-27.692320
231.774994	1067.219238	1235.607788	1069.494751	1.351346
232.154221	1023.984375	1267.465088	987.576050	-14.953269
232.533417	1030.810913	1242.434326	1033.086426	1.075265
232.912582	1115.005249	1246.985352	998.953613	-87.931160
233.291702	1026.259888	1274.291626	1039.912964	5.504568
233.670792	1103.627563	1281.118164	1046.739624	-32.051239
234.049866	1121.831787	1258.363037	1001.229126	-88.333374
234.428894	1001.229126	1237.883301	1046.739624	19.230803
234.807892	1119.556274	1253.812012	1074.045776	-33.898365
235.186874	1076.321289	1319.802124	1051.290649	-10.280333
235.565781	1083.147949	1308.424438	1049.015137	-15.151520
235.944687	1003.504700	1363.036987	1078.596802	20.886053
236.323547	1083.147949	1269.740601	1005.780212	-41.463444
236.702377	1083.147949	1317.526489	973.922913	-46.601978
237.081177	1103.627563	1367.588013	1019.433350	-31.896526
237.459946	1060.392700	1338.006226	1074.045776	4.918015
237.838669	1069.494751	1315.250977	1069.494751	0.000000
238.217361	1046.739624	1237.883301	1062.668213	8.333306
238.596039	1042.188477	1281.118164	998.953613	-18.095224
238.974670	1067.219238	1340.281738	1037.637451	-10.833340
239.353271	1039.912964	1235.607788	1003.504700	-18.604612
239.731842	1096.801025	1363.036987	1049.015137	-17.948698
240.110367	1121.831787	1196.923950	1067.219238	-72.727364
240.488876	1044.463989	1392.618774	1019.433350	-7.189515
240.867340	1028.535400	1356.210449	1046.739624	5.555572
241.245789	1105.903076	1479.088501	1089.974487	-4.268277
241.624176	1115.005249	1485.915039	976.198425	-37.423336
242.002548	1069.494751	1479.088501	1089.974487	5.000012
242.380890	998.953613	1558.731689	1087.698975	15.853668
242.759186	1076.321289	1642.926025	1160.515625	14.859448
243.137451	1010.331238	1847.722900	1030.810913	2.445651
243.515686	1035.361938	1890.957764	1137.760376	11.968085
243.893890	1069.494751	1909.161987	1074.045776	0.542003
244.272049	1028.535400	1888.682251	1074.045776	5.291001
244.650192	1058.117188	1802.212524	1074.045776	2.140665
245.028290	1023.984375	1704.365112	1033.086426	1.337788
245.406357	1060.392700	1686.160889	1035.361938	-4.000005
245.784393	1005.780212	1747.599976	1060.392700	7.361962
246.162384	1035.361938	1617.895264	1051.290649	2.734386
246.540359	1026.259888	1649.752563	1083.147949	9.124095
246.918289	1078.596802	1824.967651	1135.484863	7.621956
247.296204	1096.801025	1988.805176	1187.821899	10.204086
247.674057	1178.719727	2220.908203	1126.382813	-5.021828
248.051895	1137.760376	2521.277100	1165.066650	1.973686
248.429703	1062.668213	2598.644775	1217.403687	10.074078
248.807465	1099.076538	2471.215576	1194.648438	6.965176
249.185196	1096.801025	2471.215576	1190.097412	6.788082
249.562897	1092.250000	2232.285889	1192.372925	8.782436
249.940567	1126.382813	2164.020264	1128.658325	0.219297
250.318192	1112.729614	1959.223389	1083.147949	-3.494611
250.695801	1030.810913	1879.580200	1137.760376	12.600534
251.073349	1028.535400	1840.896362	1124.107300	11.764709
251.450882	1092.250000	1793.110352	1080.872437	-1.623371
251.828400	1099.076538	1752.151001	1115.005249	2.439034
252.205872	1087.698975	1772.630737	1074.045776	-1.993366
252.583313	1053.566162	1845.447388	1099.076538	5.747121
252.960693	1028.535400	1947.845825	1119.556274	9.900994
253.338074	1092.250000	2016.111450	1035.361938	-6.157640
253.715408	1117.280762	1966.049927	1053.566162	-7.506705
254.092682	1037.637451	1872.753662	1083.147949	5.449601
254.469955	1076.321289	1806.763550	1105.903076	4.049846
254.847198	1017.157776	1686.160889	1167.342163	22.448982
255.224365	1099.076538	1747.599976	1085.423462	-2.105256
255.601563	1085.423462	1736.222412	1055.841675	-4.545457
255.978683	1103.627563	1708.916138	1055.841675	-7.894728
256.355743	1033.086426	1765.804199	1067.219238	4.658385
256.732819	1078.596802	1743.048950	1119.556274	6.164398
257.109894	1023.984375	1795.385864	1080.872437	7.374637
257.486877	1105.903076	1745.324463	1151.413574	7.117450
257.863831	1083.147949	1799.937012	1105.903076	3.174592
258.240753	1019.433350	1929.641602	1089.974487	7.750000
258.617645	1096.801025	1975.152100	1062.668213	-3.886010
258.994507	1099.076538	2047.968750	1151.413574	5.515594
259.371307	1089.974487	2220.908203	1176.444214	7.645870
259.748108	1089.974487	2200.428711	1115.005249	2.254101
260.124878	1080.872437	2616.848877	1160.515625	5.185183
260.501617	1085.423462	2928.595215	1183.270874	5.308643
260.878296	1064.943726	3208.484375	1190.097412	5.838644
261.254944	1119.556274	3390.525879	1260.638550	6.212424
261.631561	1058.117188	3203.933350	1199.199463	6.574760
262.008179	1096.801025	2876.258301	1176.444214	4.475701
262.384735	1058.117188	2523.552490	1162.791138	7.142857
262.761261	1076.321289	2298.276123	1162.791138	7.076354
263.137695	1083.147949	2218.632813	1124.107300	3.607212
263.514191	1071.770264	2189.051025	1192.372925	10.794302
263.890594	1012.606750	2168.571289	1092.250000	6.889765
264.267029	1074.045776	2177.673340	1140.035889	5.979383
264.643341	1117.280762	2202.704102	1115.005249	-0.209643
265.019653	1062.668213	2145.816162	1117.280762	5.042021
265.395935	1083.147949	2175.397949	1087.698975	0.416665
265.772217	985.300537	2125.336426	1076.321289	7.984025
266.148407	1042.188477	2052.519775	1101.352051	5.855859
266.524597	1085.423462	2236.836914	1035.361938	-4.347832
266.900726	1062.668213	2243.663574	1101.352051	3.275528
267.276855	1085.423462	2339.235352	1119.556274	2.722323
267.652924	1083.147949	2446.184814	1124.107300	3.005007
268.028992	1028.535400	2462.113525	1017.157776	-0.793652
268.404999	1094.525513	2466.664551	1151.413574	4.145940
268.781006	1128.658325	2361.990479	1094.525513	-2.767528
269.156921	985.300537	2268.694336	1103.627563	9.219853
269.532837	1105.903076	2336.959961	1174.168701	5.545286
269.908661	1010.331238	2459.837891	1219.679199	14.442705
270.284546	1053.566162	2380.194824	1101.352051	3.602055
270.660339	1039.912964	2491.695313	1146.862427	7.366770
271.036133	1071.770264	2484.868652	1099.076538	1.932369
271.411835	1076.321289	2573.614014	1192.372925	7.750765
271.787537	1035.361938	2853.503174	1133.209351	5.381728
272.163239	1030.810913	2965.003662	1126.382813	4.941178
272.538849	1046.739624	3090.157227	1180.995239	6.570151
272.914459	1010.331238	3144.769775	1237.883301	10.660980
273.290070	1092.250000	2944.523926	1155.964600	3.439804
273.665588	1130.933838	2919.493164	1185.546387	3.053438
274.041046	1055.841675	2949.074951	1108.178589	2.764420
274.416565	1044.463989	2798.890625	1140.035889	5.447472
274.791962	1071.770264	2751.104736	1133.209351	3.658538
275.167389	1092.250000	2687.390137	1140.035889	2.995717
275.542755	1028.535400	2682.839111	1128.658325	6.052270
275.918060	1014.882263	2689.665527	1201.474976	11.141306
276.293365	1053.566162	2698.767578	1117.280762	3.872754
276.668640	1076.321289	2619.124512	1071.770264	-0.294984
277.043854	1094.525513	2655.532715	1206.026001	7.142856
277.419037	1092.250000	2757.931152	1146.862427	3.278684
277.794189	1008.055725	2735.176025	1169.617676	9.354412
278.169312	1087.698975	2757.931152	1219.679199	7.901909
278.544373	1014.882263	2776.135498	1240.158813	12.790697
278.919464	1051.290649	2735.176025	1176.444214	7.432428
279.294464	1124.107300	2803.441650	1103.627563	-1.219515
279.669464	1071.770264	2771.584229	1187.821899	6.827314
280.044403	1014.882263	2801.166016	1192.372925	9.936309
280.419312	1010.331238	2810.268311	1235.607788	12.515801
280.794189	1087.698975	2848.952148	1228.781250	8.010335
281.169037	1069.494751	2990.034424	1062.668213	-0.355449
281.543854	1071.770264	3008.238525	1110.454102	1.997649
281.918671	1110.454102	3076.504150	1192.372925	4.166670
282.293365	1067.219238	3224.413086	1167.342163	4.641350
282.668091	1062.668213	3210.759766	1224.230225	7.521188
283.042786	1112.729614	3379.148438	1171.893188	2.610443
283.417419	1176.444214	3470.169189	1244.709839	2.976190
283.792053	1105.903076	3279.025391	1219.679199	5.235606
284.166595	1080.872437	3192.555664	1206.026001	5.926721
284.541138	1033.086426	3165.249512	1224.230225	8.964784
284.915619	1021.708862	3115.187988	1242.434326	10.543476
285.290100	1169.617676	3358.668701	1174.168701	0.207899
285.664520	1017.157776	3390.525879	1142.311401	5.273250
286.038940	1071.770264	3465.618164	1231.056763	6.653994
286.413300	1042.188477	3476.995850	1242.434326	8.224299
286.787628	1058.117188	3679.517090	1242.434326	7.031249
287.161896	1133.209351	3843.354736	1190.097412	2.099078
287.536194	1012.606750	3718.200928	1301.597900	10.681245
287.910400	1060.392700	3702.272461	1299.322388	9.043927
288.284607	1103.627563	3379.148438	1246.985352	6.299998
288.658752	1017.157776	3306.331787	1237.883301	9.642147
289.032867	1042.188477	3210.759766	1203.750488	7.450159
289.406921	1085.423462	3356.393066	1233.332275	6.513024
289.781006	1030.810913	3372.321777	1306.148926	11.758990
290.154999	1035.361938	3269.923340	1155.964600	5.397151
290.529022	1087.698975	3520.230713	1242.434326	6.361083
290.902954	1101.352051	3690.894775	1246.985352	5.623900
291.276825	1074.045776	3843.354736	1251.536499	6.409206
291.650757	1085.423462	3877.487549	1283.393677	7.090461
292.024597	1101.352051	3922.997803	1215.128052	4.032257
292.398407	1103.627563	3597.598389	1219.679199	4.653288
292.772156	1108.178589	3545.261475	1328.904175	9.056958
293.145905	1058.117188	3404.179199	1251.536499	8.244425
293.519592	1058.117188	3395.077148	1258.363037	8.568647
293.893280	1196.923950	3527.057129	1287.944824	3.906252
294.266907	1076.321289	3595.322754	1219.679199	5.691061
294.640533	989.851563	3638.557861	1237.883301	9.364260
295.014069	978.473938	3918.446777	1249.260864	9.210525
295.387604	1128.658325	4032.222900	1219.679199	3.134798
295.761078	1060.392700	4004.916504	1269.740601	7.109737
296.134552	1135.484863	4041.324951	1317.526489	6.264681
296.507996	1062.668213	4050.427002	1319.802124	8.606247
296.881378	1051.290649	4045.875977	1265.189575	7.142856
297.254730	1076.321289	4289.356934	1290.220337	6.657226
297.628021	962.545288	4607.929688	1303.873413	9.363297
298.001282	1058.117188	4612.480469	1317.526489	7.298334
298.374573	1026.259888	4805.899902	1360.761475	8.850091
298.747803	1101.352051	4644.337891	1365.312500	7.450226
299.121002	1042.188477	4323.489746	1328.904175	8.737865
299.494141	1119.556274	4143.723145	1351.659302	7.674941
299.867188	1074.045776	4107.314941	1242.434326	5.551389
300.240265	1078.596802	3941.202148	1258.363037	6.279812
300.613312	1071.770264	3820.599365	1315.250977	8.857615
300.986328	1089.974487	3818.323975	1242.434326	5.587987
301.359314	1087.698975	3704.547852	1226.505737	5.304348
301.732239	1085.423462	3734.129639	1183.270874	3.694159
302.105103	1014.882263	3781.915527	1212.852539	7.154604
302.477997	1119.556274	3706.823486	1246.985352	4.925239
302.850830	1094.525513	3761.435791	1221.954712	4.778159
303.223602	1053.566162	3806.946289	1317.526489	9.586774
303.596375	1042.188477	3831.977051	1310.699951	9.624797
303.969116	1094.525513	3649.935303	1285.669312	7.479967
304.341766	1099.076538	3552.087891	1253.812012	6.307981
304.714478	1089.974487	3536.159424	1169.617676	3.255812
305.087067	1089.974487	3533.883789	1217.403687	5.214154
305.459656	1069.494751	3645.384277	1303.873413	9.098940
305.832214	1076.321289	3563.465576	1272.016113	7.868254
306.204681	1162.791138	3554.363525	1299.322388	5.708849
306.577148	1030.810913	3506.577637	1244.709839	8.639705
306.949646	1085.423462	3713.649902	1233.332275	5.627704
307.322021	1074.045776	3668.139648	1165.066650	3.508774
307.694397	1039.912964	3579.394287	1212.852539	6.810035
308.066742	1069.494751	3595.322754	1210.577026	5.585585
308.439026	992.127075	3818.323975	1276.567139	10.064411
308.811279	1146.862427	3761.435791	1235.607788	3.394258
309.183502	1019.433350	3948.028564	1272.016113	8.624707
309.555695	983.024963	3954.855225	1262.914063	9.418072
309.927887	1033.086426	3991.263428	1262.914063	7.769232
310.299988	1121.831787	4070.906738	1217.403687	3.240742
310.672058	1103.627563	4064.080078	1242.434326	4.688701
311.044128	1069.494751	4239.295410	1192.372925	3.876527
311.416168	1092.250000	4255.224121	1208.301514	3.669063
311.788147	1085.423462	4159.651855	1353.934937	8.734272
312.160065	1124.107300	4089.110840	1237.883301	3.837297
312.531982	1096.801025	4123.243652	1278.842651	6.015037
312.903870	1089.974487	3954.855225	1242.434326	5.321681
313.275696	1019.433350	3893.416016	1246.985352	7.917654
313.647491	1037.637451	4004.916504	1151.413574	3.834359
314.019318	1153.689087	3763.711426	1183.270874	1.133392
314.391022	1044.463989	3765.986816	1228.781250	6.772578
314.762726	1046.739624	3913.895752	1233.332275	6.507935
315.134369	1074.045776	4023.120850	1244.709839	5.787036
315.505981	1089.974487	4287.081055	1258.363037	5.266905
315.877594	1037.637451	4321.213867	1199.199463	4.920306
316.249146	1099.076538	4127.794922	1194.648438	3.155523
316.620636	1030.810913	3927.548828	1183.270874	5.263161
316.992157	1105.903076	3809.221924	1165.066650	2.188553
317.363586	1035.361938	3836.528076	1187.821899	5.442732
317.735016	1089.974487	3690.894775	1160.515625	2.712161
318.106354	1055.841675	3781.915527	1237.883301	6.677795
318.477722	1044.463989	3784.191162	1180.995239	4.983389
318.849060	1074.045776	3788.742188	1190.097412	4.274940
319.220306	1055.841675	3875.211914	1115.005249	2.098468
319.591522	1083.147949	3963.957275	1199.199463	4.028434
319.962738	1053.566162	3895.691650	1190.097412	4.803843
320.333923	1071.770264	4011.743164	1215.128052	4.876160
320.705017	1092.250000	3843.354736	1169.617676	2.812240
321.076111	1155.964600	3836.528076	1233.332275	2.886247
321.447144	1105.903076	3909.344727	1140.035889	1.217533
321.818176	1094.525513	3699.996826	1215.128052	4.628819
322.189178	1005.780212	3829.701416	1253.812012	8.783241
322.560120	1003.504700	3761.435791	1199.199463	7.095709
322.931030	1110.454102	3613.527100	1144.586914	1.363636
323.301910	1060.392700	3868.385254	1171.893188	3.970825
323.672729	1033.086426	4180.131836	1199.199463	5.278381
324.043549	1021.708862	4369.000000	1308.424438	8.565600
324.414337	1078.596802	4425.888184	1310.699951	6.934059
324.785095	1096.801025	4764.940430	1217.403687	3.287843
325.155792	1092.250000	4667.093262	1162.791138	1.973265
325.526428	1074.045776	4728.532227	1192.372925	3.237860
325.897034	1080.872437	4683.021973	1105.903076	0.694881
326.267670	1035.361938	4391.755371	1196.923950	4.813560
326.638184	1071.770264	4505.531250	1235.607788	4.771372
327.008728	1071.770264	4607.929688	1192.372925	3.410555
327.379211	1130.933838	4532.837402	1226.505737	2.809365
327.749634	1087.698975	4516.908691	1192.372925	3.052422
328.120026	1089.974487	4412.234863	1206.026001	3.493149
328.490417	1083.147949	4434.990234	1212.852539	3.869651
328.860748	1105.903076	4207.437988	1130.933838	0.807044
329.231079	1064.943726	4214.264648	1208.301514	4.552022
329.601318	1055.841675	4227.917480	1240.158813	5.810616
329.971558	1060.392700	4312.111816	1137.760376	2.379285
330.341736	1058.117188	4200.611328	1201.474976	4.561911
330.711914	1101.352051	4209.713379	1146.862427	1.464128
331.082062	1130.933838	4391.755371	1178.719727	1.465456
331.452148	1074.045776	4246.121582	1176.444214	3.228121
331.822174	1064.943726	4275.703613	1178.719727	3.543585
332.192200	1087.698975	4466.847168	1185.546387	2.895624
332.562134	1096.801025	4412.234863	1180.995239	2.539463
332.932129	1046.739624	4621.582520	1212.852539	4.646719
333.302063	1067.219238	4667.093262	1287.944824	6.131481
333.671906	1067.219238	4785.420410	1142.311401	2.019583
334.041718	1092.250000	4846.859375	1194.648438	2.727273
334.411499	1071.770264	4821.828613	1265.189575	5.157768
334.781281	1030.810913	4903.747559	1185.546387	3.995301
335.151001	1112.729614	4808.175293	1219.679199	2.894092
335.520721	1126.382813	4833.206055	1196.923950	1.903008
335.890350	1037.637451	4678.470703	1208.301514	4.687500
336.259979	1085.423462	4642.062500	1281.118164	5.502237
336.629547	1046.739624	4683.021973	1237.883301	5.256569
336.999084	1085.423462	4778.593750	1203.750488	3.203942
337.368622	1017.157776	4805.899902	1224.230225	5.465467
337.738098	1023.984375	4796.797852	1217.403687	5.126660
338.107513	1046.739624	4712.603516	1265.189575	5.959031
338.476898	1049.015137	4737.634277	1233.332275	4.996914
338.846252	1055.841675	4869.614746	1233.332275	4.653937
339.215576	1126.382813	4965.186523	1146.862427	0.533489
339.584869	1158.240112	4758.113770	1221.954712	1.769912
339.954132	1064.943726	4883.267578	1240.158813	4.588796
340.323334	1083.147949	4628.409180	1199.199463	3.273426
340.692505	1060.392700	4578.347656	1096.801025	1.034929
341.061646	1115.005249	4444.092285	1140.035889	0.751877
341.430786	1035.361938	4651.164551	1185.546387	4.153558
341.799896	1096.801025	4805.899902	1183.270874	2.331290
342.168915	976.198425	4830.930664	1190.097412	5.548997
342.537903	1117.280762	5010.696777	1162.791138	1.168906
342.906830	978.473938	5008.421387	1221.954712	6.041785
343.275757	1017.157776	5110.819824	1194.648438	4.335743
343.644684	937.514587	5035.727539	1142.311401	4.997222
344.013550	1078.596802	5183.636230	1242.434326	3.991132
344.382355	1064.943726	5361.126953	1256.087524	4.449154
344.751129	1021.708862	5490.831543	1278.842651	5.753563
345.119873	1080.872437	5784.374023	1185.546387	2.225447
345.488586	1087.698975	5891.323242	1237.883301	3.126480
345.857269	1137.760376	6075.640625	1303.873413	3.364056
346.225891	1067.219238	6118.875488	1322.077637	5.045046
346.594482	1087.698975	6389.662598	1417.649414	6.223174
346.963043	1053.566162	6385.111328	1312.975464	4.865556
347.331543	1053.566162	5850.363770	1240.158813	3.889942
347.700043	1133.209351	5766.169922	1267.465088	2.897839
348.068512	1030.810913	5700.179688	1180.995239	3.216373
348.436951	1069.494751	5479.454102	1299.322388	5.211559
348.805328	1064.943726	5402.086426	1262.914063	4.564534
349.173645	1130.933838	5333.820801	1324.353149	4.602058
349.541931	1060.392700	5395.259766	1219.679199	3.674542
349.910217	1078.596802	5577.301270	1235.607788	3.490138
350.278473	1092.250000	5527.240234	1183.270874	2.052336
350.646667	1067.219238	5763.894043	1217.403687	3.197676
351.014801	1026.259888	5827.608887	1290.220337	5.497631
351.382935	1033.086426	5895.874512	1274.291626	4.960224
351.751007	1128.658325	5688.802246	1251.536499	2.694612
352.119049	1080.872437	5950.486816	1335.730713	5.233644
352.487091	1101.352051	5873.119141	1310.699951	4.387219
352.855072	1033.086426	5786.649414	1217.403687	3.877455
353.222992	1046.739624	5975.517578	1292.495850	4.986149
353.590881	1033.086426	6046.058594	1242.434326	4.176123
353.958740	1092.250000	6255.406738	1285.669312	3.746145
354.326599	1035.361938	6337.325195	1301.597900	5.021460
354.694397	1158.240112	6601.285645	1312.975464	2.842808
355.062134	1037.637451	6703.684082	1283.393677	4.337349
355.429840	1130.933838	6890.276855	1246.985352	2.015013
355.797516	1101.352051	6960.818359	1310.699951	3.572815
356.165192	1046.739624	7017.706055	1297.046875	4.192073
356.532776	1044.463989	7233.880859	1360.761475	5.110295
356.900360	1083.147949	7445.503906	1374.414551	4.577968
357.267883	1078.596802	7588.861816	1390.343262	4.788537
357.635376	1071.770264	8087.201172	1417.649414	4.930263
358.002808	1069.494751	8262.416016	1297.046875	3.163556
358.370270	1080.872437	8756.204102	1367.588013	3.735546
358.737640	1062.668213	8722.071289	1403.996338	4.456328
359.105011	1055.841675	8494.519531	1385.792114	4.435606
359.472321	1062.668213	8162.292969	1378.965576	4.455128
359.839569	1049.015137	8182.772949	1413.098389	5.103667
360.206787	1037.637451	7930.189941	1442.680176	5.876527
360.574005	1023.984375	8296.548828	1429.027100	5.569462
360.941193	1046.739624	8801.714844	1401.720825	4.577464
361.308319	1003.504700	9165.797852	1438.129150	5.324784
361.675415	1008.055725	9964.505859	1506.394775	5.564024
362.042450	1110.454102	10690.396484	1611.068726	5.225654
362.409424	1008.055725	11115.918945	1481.364014	4.682575
362.776428	1046.739624	11099.990234	1490.466064	4.413761
363.143402	1071.770264	10804.172852	1597.415649	5.400983
363.510284	1094.525513	9932.648438	1424.476074	3.733265
363.877136	1092.250000	9236.338867	1451.782227	4.414640
364.243988	1121.831787	8503.621094	1429.027100	4.161529
364.610779	1105.903076	8071.272461	1381.241089	3.952956
364.977539	1058.117188	7964.322754	1374.414551	4.579901
365.344269	1017.157776	7775.454590	1469.986450	6.700337
365.710938	1039.912964	7641.198730	1369.863525	4.998277
366.077576	1019.433350	7427.299805	1338.006226	4.971591
366.444183	1001.229126	7334.003418	1326.628662	5.138341
366.810760	1044.463989	7447.779785	1328.904175	4.442076
367.177277	998.953613	7525.147461	1349.383789	5.369595
367.543823	1055.841675	7436.401855	1315.250977	4.065619
367.910248	1039.912964	7390.891602	1363.036987	5.087783
368.276642	1049.015137	7236.156250	1303.873413	4.119161
368.643036	1058.117188	7447.779785	1365.312500	4.807692
369.009399	1110.454102	7124.655762	1326.628662	3.594402
369.375671	1051.290649	7142.859863	1262.914063	3.474038
369.741974	1042.188477	6938.062988	1287.944824	4.168276
370.108215	1142.311401	7004.053223	1306.148926	2.795032
370.474396	1037.637451	7111.002441	1283.393677	4.046459
370.840546	1085.423462	7145.135254	1349.383789	4.355988
371.206665	1021.708862	7274.839844	1308.424438	4.585152
371.572784	1089.974487	7288.493164	1383.516602	4.735682
371.938843	1008.055725	7570.657715	1374.414551	5.582524
372.304840	1110.454102	7418.197754	1374.414551	4.184705
372.670807	1078.596802	7618.443848	1392.618774	4.801672
373.036713	1055.841675	7472.810547	1369.863525	4.893617
373.402649	1026.259888	7368.136230	1376.690063	5.525654
373.768524	985.300537	7363.585449	1360.761475	5.886550
374.134308	1017.157776	7447.779785	1415.373901	6.192498
374.500122	980.749451	7409.095703	1388.067749	6.336285
374.865875	1049.015137	7818.689453	1324.353149	4.067227
375.231567	1112.729614	7859.648926	1483.639526	5.497470
375.597260	1071.770264	7848.271484	1383.516602	4.600403
375.962891	1033.086426	7902.883789	1469.986450	6.359722
376.328461	1078.596802	8394.396484	1465.435425	5.287714
376.694031	1055.841675	8335.232422	1356.210449	4.126290
377.059540	1094.525513	8699.316406	1419.924927	4.278874
377.425049	1112.729614	8945.072266	1474.537476	4.619408
377.790497	1087.698975	9263.645508	1574.660400	5.956025
378.155945	1089.974487	9614.075195	1601.966675	6.006407
378.521301	1121.831787	9611.799805	1556.456177	5.119270
378.886597	1060.392700	9275.022461	1561.007324	6.094183
379.251892	1142.311401	8906.388672	1590.588989	5.773739
379.617157	1074.045776	8565.060547	1533.701050	6.136088
379.982422	1039.912964	8351.161133	1476.812988	5.975724
380.347595	1094.525513	8178.221680	1495.017212	5.653711
380.712738	1053.566162	8278.344727	1538.252075	6.708662
381.077820	1021.708862	8230.558594	1554.180664	7.386363
381.442902	989.851563	8403.498047	1520.047852	7.151626
381.807953	1126.382813	8319.303711	1529.150024	5.599494
382.172974	1085.423462	8480.866211	1533.701050	6.061538
382.537933	1021.708862	8114.507324	1497.292725	6.705165
382.902832	1001.229126	8291.998047	1517.772339	7.084893
383.267700	1112.729614	8330.681641	1556.456177	6.147541
383.632538	1023.984375	8269.242188	1588.313477	7.788944
383.997345	1099.076538	8594.641602	1588.313477	6.527019
384.362152	1046.739624	8844.949219	1649.752563	7.732710
384.726898	1049.015137	8976.929688	1640.650513	7.462686
385.091553	1092.250000	8854.051758	1702.089600	7.856934
385.456238	1060.392700	8872.255859	1586.037964	6.728808
385.820862	1069.494751	9113.460938	1722.569214	8.118812
386.185425	1083.147949	8942.796875	1697.538574	7.817024
386.549988	1055.841675	9006.511719	1647.477051	7.441328
386.914490	1053.566162	9281.849609	1708.916138	7.964602
387.278961	1080.872437	9422.931641	1859.100464	9.328967
387.643372	980.749451	9407.002930	1804.488037	9.775858
388.007782	1105.903076	9566.289063	1761.253052	7.746100
388.372101	1083.147949	9545.809570	1770.355225	8.120462
388.736450	1078.596802	9447.961914	1829.518677	8.972268
389.100739	1092.250000	9475.268555	1881.855713	9.419109
389.464966	998.953613	9379.696289	1809.039063	9.666035
389.829163	1033.086426	9320.533203	1793.110352	9.170784
390.193329	1089.974487	9163.522461	1806.763550	8.878242
390.557495	1001.229126	9193.104492	1790.834839	9.638888
390.921570	1049.015137	9413.829102	1802.212524	9.004353
391.285614	1053.566162	9598.146484	1991.080688	10.972037
391.649597	1101.352051	10248.945313	1966.049927	9.452736
392.013550	1055.841675	10742.733398	2038.866699	10.147992
392.377502	1062.668213	10817.826172	1986.529663	9.470491
392.741455	1119.556274	10952.082031	2027.489014	9.233973
393.105316	1026.259888	10963.458984	2136.714111	11.174721
393.469086	1037.637451	10565.243164	2154.918213	11.726774
393.832886	1080.872437	10444.640625	2102.581299	10.911300
394.196655	1012.606750	10553.865234	2061.621826	10.994515
394.560333	1039.912964	10647.162109	2079.825928	10.824253
394.924042	1058.117188	10733.631836	2166.295898	11.453434
395.287659	1042.188477	10738.182617	2257.316650	12.532270
395.651245	1005.780212	10763.213867	2134.438477	11.567163
396.014771	1121.831787	10476.498047	2179.948975	11.311116
396.378296	1037.637451	10114.690430	2025.213501	10.879920
396.741791	1110.454102	9798.392578	2113.958740	11.550550
397.105255	1062.668213	9684.616211	2198.153076	13.169702
397.468628	1076.321289	9450.238281	2168.571289	13.043478
397.832001	1014.882263	9427.482422	2141.265137	13.389235
398.195313	1049.015137	9650.483398	2075.274902	11.931215
398.558624	1092.250000	9402.452148	2179.948975	13.088718
398.921844	1087.698975	9582.217773	2245.938965	13.635146
399.285095	1026.259888	9602.698242	2236.836914	14.115149
399.648254	1089.974487	9675.514648	2148.091553	12.324409
400.011383	1042.188477	9741.504883	2236.836914	13.732670
400.374451	1126.382813	9723.300781	2316.480225	13.843303
400.737549	1067.219238	9645.932617	2255.041016	13.846154
401.100586	1094.525513	9591.320313	2202.704102	13.042313
401.463562	1078.596802	9645.932617	2195.877686	13.041170
401.826508	994.402588	9946.301758	2423.429688	15.963395
402.189392	1099.076538	9866.658203	2296.000488	13.651699
402.552246	1030.810913	9686.891602	2318.755615	14.879074
402.915070	1126.382813	9918.995117	2371.092773	14.156316
403.277893	1044.463989	10148.823242	2432.531738	15.246188
403.640656	1055.841675	10289.905273	2427.980713	14.859536
404.003326	1042.188477	10640.334961	2623.675537	16.477005
404.366028	1001.229126	10806.448242	2516.726074	15.456024
404.728699	1051.290649	11036.276367	2648.706299	15.998178
405.091248	1037.637451	11475.451172	2610.022461	15.064314
405.453857	1110.454102	11366.226563	2680.563477	15.309519
405.816345	1121.831787	11357.124023	2721.522949	15.629169
406.178833	1062.668213	11377.604492	2707.869873	15.949702
406.541260	1135.484863	11416.288086	2769.308838	15.891989
406.903687	1108.178589	10983.938477	2723.798340	16.359447
407.266052	1028.535400	10936.153320	2653.257324	16.398714
407.628387	1076.321289	10756.386719	2817.094727	17.983074
407.990662	1069.494751	10565.243164	2662.359375	16.774504
408.352905	1119.556274	10797.346680	2603.195801	15.330355
408.715118	1096.801025	10676.743164	2655.532715	16.270784
409.077332	1076.321289	10442.365234	2792.063965	18.318756
409.439484	1096.801025	10679.019531	2839.849854	18.190451
409.801575	1010.331238	10783.693359	2771.584229	18.020952
410.163605	1080.872437	11179.633789	2846.676514	17.485352
410.525635	1051.290649	11074.959961	2912.666504	18.569805
410.887604	1087.698975	11384.430664	2830.747803	16.928177
411.249573	1130.933838	11400.359375	2999.136475	18.191891
411.611481	1058.117188	11566.472656	2983.207764	18.319618
411.973328	1021.708862	11209.215820	2928.595215	18.717890
412.335144	1030.810913	11475.451172	2892.187012	17.821352
412.696930	1035.361938	11079.510742	2987.758789	19.438152
413.058685	1078.596802	11102.265625	2821.645752	17.389330
413.420410	1080.872437	11065.857422	2917.217773	18.391068
413.782104	1074.045776	11131.847656	3005.962891	19.208145
414.143707	1060.392700	11250.174805	2926.319824	18.311747
414.505310	1012.606750	11272.929688	2985.483398	19.228212
414.866852	1099.076538	11477.726563	2921.768799	17.561939
415.228394	1067.219238	11525.512695	2953.625977	18.037424
415.589874	1078.596802	11586.952148	3005.962891	18.341272
415.951324	1128.658325	11805.402344	3008.238525	17.604433
416.312683	1101.352051	12183.138672	3071.953125	17.782341
416.674072	1060.392700	12422.068359	3128.841064	18.205486
417.035370	998.953613	12674.650391	3226.688477	19.080101
417.396667	1012.606750	12852.141602	3178.902588	18.297136
417.757935	1049.015137	13141.132813	3363.219727	19.138126
418.119141	1062.668213	13755.523438	3370.046387	18.178558
418.480286	1051.290649	13846.543945	3335.913574	17.855240
418.841400	1062.668213	14690.762695	3422.383301	17.315077
419.202484	1055.841675	15052.570313	3549.812500	17.818241
419.563568	1112.729614	15619.174805	3715.925537	17.945097
419.924591	1092.250000	16490.699219	3850.181152	17.910448
420.285553	1060.392700	16729.628906	3822.875000	17.629974
420.646484	1087.698975	17785.470703	4061.804688	17.811394
421.007355	1110.454102	18261.054688	4150.549805	17.725883
421.368225	1060.392700	19087.068359	4332.591797	18.151983
421.729065	1014.882263	19485.285156	4485.051270	18.787727
422.089874	1069.494751	20008.654297	4785.420410	19.620331
422.450592	1085.423462	20354.533203	4683.021973	18.670290
422.811279	1010.331238	19917.632813	4767.216309	19.870024
423.171936	1060.392700	19933.562500	4692.124023	19.242826
423.532593	1010.331238	19567.203125	4819.553223	20.527287
423.893127	1019.433350	19942.664063	4931.053711	20.670998
424.253723	1039.912964	20397.767578	4876.440918	19.818972
424.614197	1039.912964	20456.931641	4876.440918	19.758583
424.974670	1137.760376	21091.802734	5158.605469	20.150530
425.335052	1087.698975	21280.669922	5372.504395	21.219294
425.695496	1087.698975	19999.552734	5092.615723	21.176754
426.055817	1008.055725	20254.410156	5156.330078	21.553560
426.416168	985.300537	20156.562500	5115.370605	21.543028
426.776398	1064.943726	19171.263672	4846.859375	20.887268
427.136627	1058.117188	18213.267578	4744.460938	21.488262
427.496826	992.127075	17753.613281	4712.603516	22.196579
427.856995	1060.392700	17266.652344	4594.276367	21.805672
428.217102	1046.739624	16506.626953	4389.479492	21.622019
428.577179	1053.566162	16518.005859	4328.040527	21.174219
428.937195	1042.188477	16304.106445	4343.969238	21.634113
429.297180	1028.535400	15616.899414	4225.642090	21.915457
429.657135	1076.321289	15484.918945	4271.152344	22.173088
430.017059	1085.423462	15980.982422	4120.968262	20.378859
430.376984	1030.810913	15425.755859	4136.896973	21.577616
430.736786	1014.882263	15437.132813	4048.151611	21.031872
431.096588	1044.463989	15018.437500	4102.764160	21.885689
431.456360	1094.525513	15496.296875	4191.509277	21.504187
431.816071	985.300537	14840.946289	4125.519043	22.663820
432.175781	1064.943726	14911.488281	4093.661865	21.873459
432.535400	1110.454102	15455.336914	4073.182129	20.653553
432.895020	1030.810913	15170.897461	4054.978027	21.387188
433.254578	1019.433350	15327.908203	4139.172363	21.803436
433.614105	1026.259888	15457.613281	4350.795898	23.036898
433.973602	1101.352051	15557.735352	4453.194336	23.185898
434.333038	1003.504700	15830.797852	4412.234863	22.989565
434.692444	1044.463989	15812.593750	4512.357910	23.482283
435.051819	1083.147949	16103.860352	4553.316895	23.102558
435.411133	1049.015137	16165.299805	4737.634277	24.401625
435.770416	989.851563	15387.071289	4678.470703	25.620358
436.129669	1049.015137	16274.524414	4844.583984	24.929010
436.488861	996.678101	15644.205078	4789.971191	25.897156
436.848083	1023.984375	15910.441406	4903.747559	26.062368
437.207184	1046.739624	15785.288086	4926.502441	26.323912
437.566254	1039.912964	16263.147461	4990.217285	25.949179
437.925293	987.576050	15992.360352	4969.737305	26.539276
438.284363	1101.352051	16265.422852	5144.952637	26.665668
438.643311	1089.974487	16663.638672	5231.422363	26.592636
439.002258	1117.280762	16586.271484	5320.167480	27.169754
439.361145	1108.178589	17146.048828	5647.842773	28.305904
439.719971	1051.290649	17505.582031	5643.291504	27.907619
440.078827	985.300537	17603.429688	5675.148926	28.221279
440.437592	1062.668213	18395.310547	6002.823730	28.502031
440.796295	1028.535400	18802.628906	6216.722656	29.189604
441.155029	1119.556274	19640.019531	6451.101563	28.787323
441.513672	1096.801025	20345.431641	6703.684082	29.128736
441.872253	1028.535400	20306.748047	6710.510742	29.473560
442.230865	1117.280762	19517.142578	6576.254883	29.668562
442.589386	1078.596802	19717.388672	6819.735840	30.802101
442.947876	1060.392700	19426.121094	6553.500000	29.909554
443.306335	1110.454102	18982.394531	6519.367188	30.264832
443.664764	1112.729614	18224.646484	6544.397949	31.742023
444.023102	1044.463989	18793.525391	6416.968750	30.269236
444.381500	1085.423462	18377.105469	6294.090332	30.122385
444.739777	1026.259888	18600.107422	6583.081543	31.619835
445.098022	1094.525513	18734.363281	6667.275879	31.591846
445.456238	1033.086426	18656.994141	6610.387695	31.646223
445.814423	1085.423462	19483.009766	6742.368164	30.748299
446.172577	1023.984375	20320.400391	7099.625000	31.485849
446.530701	1101.352051	20468.310547	7420.473145	32.628361
446.888733	1060.392700	21344.384766	7529.698242	31.893650
447.246765	1076.321289	22152.195313	7768.627930	31.753399
447.604736	1064.943726	21137.312500	7461.432617	31.867134
447.962677	1049.015137	21756.253906	7616.167969	31.714287
448.320587	1046.739624	21904.164063	7759.525879	32.184158
448.678436	1019.433350	21389.896484	7541.076172	32.015190
449.036255	1128.658325	21253.365234	7500.116699	31.659882
449.394043	1017.157776	19949.490234	7197.472168	32.644234
449.751770	1087.698975	20347.707031	7124.655762	31.344521
450.109467	998.953613	19626.367188	7067.767578	32.580013
450.467163	1064.943726	19517.142578	6947.165039	31.878159
450.824768	1060.392700	19232.701172	6881.174805	32.031055
451.182343	1069.494751	19025.628906	6890.276855	32.416676
451.539886	1064.943726	18356.626953	6542.122070	31.675217
451.897369	989.851563	18468.126953	6765.123535	33.042572
452.254822	1099.076538	18201.890625	6505.713867	31.612558
452.612274	1101.352051	18759.392578	6885.726074	32.757732
452.969635	1023.984375	18656.994141	6740.092773	32.417088
453.326965	1044.463989	18538.667969	6751.470215	32.622272
453.684326	1042.188477	18513.636719	6469.305664	31.062777
454.041534	1014.882263	17922.001953	6467.030273	32.247646
454.398773	1023.984375	17576.123047	6291.814941	31.825680
454.755951	1062.668213	17173.355469	6178.039063	31.751413
455.113098	1023.984375	16866.160156	5923.180664	30.925022
455.470215	1158.240112	16754.660156	5998.272949	31.032972
455.827240	1060.392700	16736.455078	6018.752441	31.630136
456.184265	1078.596802	16413.332031	6032.405762	32.304497
456.541260	1062.668213	16793.343750	6125.702148	32.185738
456.898193	1105.903076	16447.464844	5918.629395	31.370514
457.255096	1033.086426	16984.486328	6121.150879	31.897289
457.611969	1069.494751	16624.955078	5941.384766	31.319487
457.968781	1071.770264	16590.822266	6066.538574	32.184753
458.325531	1105.903076	17234.794922	6193.967773	31.546274
458.682312	1049.015137	17908.349609	6414.693359	31.826159
459.039001	1071.770264	18868.619141	6596.734863	31.044622
459.395630	1039.912964	19703.734375	6776.500977	30.736404
459.752289	1014.882263	21005.332031	7425.024414	32.066025
460.108856	1023.984375	22919.044922	7789.107910	30.897943
460.465363	1049.015137	23478.824219	7893.781738	30.516384
460.821899	1103.627563	23817.876953	7927.914551	30.044079
461.178345	1053.566162	22702.871094	7850.546875	31.395838
461.534760	1076.321289	22275.072266	7625.270020	30.893089
461.891144	1076.321289	21722.121094	7349.932129	30.386862
462.247467	1014.882263	20588.912109	7031.359375	30.737040
462.603760	1103.627563	20174.767578	6938.062988	30.593008
462.960052	1053.566162	18697.955078	6569.428711	31.261284
463.316254	1092.250000	18443.095703	6507.989258	31.213114
463.672424	1092.250000	18231.472656	6337.325195	30.602760
464.028564	1101.352051	17516.958984	5973.242188	29.678404
464.384644	1140.035889	17380.427734	6089.293457	30.474991
464.740723	1021.708862	18072.185547	6173.487793	30.214867
465.096741	1014.882263	17683.072266	5975.517578	29.761093
465.452698	1003.504700	17407.734375	6064.262695	30.850321
465.808655	960.269775	17696.724609	6114.324219	30.795378
466.164520	1069.494751	17623.908203	5961.864258	29.553263
466.520355	1044.463989	18358.902344	6200.793945	29.780523
466.876190	1155.964600	18256.503906	6382.835938	30.565535
467.231964	1049.015137	18616.035156	6146.181641	29.015545
467.587677	1037.637451	18975.568359	6492.061035	30.407206
467.943390	1094.525513	19332.824219	6496.611816	29.619465
468.299011	1158.240112	18661.546875	6150.732910	28.523140
468.654633	1149.138062	18506.810547	6269.059570	29.496590
469.010223	1021.708862	18540.943359	6196.243164	29.536303
469.365723	1167.342163	18067.634766	6018.752441	28.706072
469.721191	1117.280762	18183.687500	6155.283691	29.519999
470.076660	1110.454102	17396.357422	5704.730469	28.210142
470.432068	1062.668213	17928.828125	6009.650391	29.330816
470.787445	1042.188477	17601.154297	5902.701172	29.352757
471.142792	1078.596802	17464.623047	5895.874512	29.398697
471.498016	1064.943726	17767.265625	6000.548340	29.550409
471.853271	1042.188477	17790.021484	5902.701172	29.021742
472.208496	1055.841675	17937.929688	5793.476074	28.063082
472.563660	1012.606750	18042.603516	5948.211426	28.981831
472.918762	1115.005249	18251.953125	5859.465820	27.685564
473.273865	1112.729614	18684.300781	5879.945801	27.130280
473.628876	1026.259888	18934.609375	6139.354980	28.551460
473.983917	1071.770264	18932.333984	5950.486816	27.315580
474.338837	1071.770264	19143.957031	6025.579102	27.411228
474.693787	1101.352051	19096.169922	5989.170898	27.162369
475.048645	1058.117188	18757.117188	5859.465820	27.127796
475.403503	1089.974487	19314.621094	5952.762207	26.682480
475.758270	1010.331238	19519.417969	6007.375000	26.997789
476.113037	1035.361938	19298.691406	5930.007324	26.800400
476.467773	1117.280762	19746.968750	5886.772461	25.601566
476.822418	1174.168701	20825.566406	6341.876465	26.296898
477.177063	1010.331238	20247.583984	6228.100586	27.123259
477.531647	1028.535400	20880.179688	6096.120117	25.527281
477.886200	1005.780212	21494.570313	6473.856445	26.688135
478.240723	1044.463989	22108.960938	6510.265137	25.947933
478.595184	1074.045776	22113.511719	6569.428711	26.119402
478.949585	1089.974487	22677.839844	6646.796387	25.740488
479.303986	1076.321289	22805.269531	6783.327637	26.264530
479.658325	992.127075	23267.201172	6753.745605	25.865767
480.012634	1074.045776	22919.044922	6583.081543	25.218748
480.366913	1010.331238	23863.386719	6817.460449	25.410736
480.721130	1062.668213	24375.378906	6824.287109	24.714497
481.075317	1144.586914	25124.025391	7108.727051	24.871893
481.429474	1042.188477	26345.980469	7402.269043	25.134890
481.783569	1074.045776	27096.902344	7720.842285	25.542147
482.137604	1076.321289	28489.519531	7845.995605	24.694944
482.491669	1101.352051	31129.125000	8537.753906	24.765079
482.845612	989.851563	34688.039063	9468.442383	25.160376
483.199554	1037.637451	38736.191406	10355.895508	24.717812
483.553436	1030.810913	45319.273438	12030.678711	24.836872
483.907318	1092.250000	52503.089844	13976.249023	25.060862
484.261139	1108.178589	57998.472656	16087.931641	26.330948
484.614899	1099.076538	59985.003906	17207.488281	27.355284
484.968628	1105.903076	59912.187500	16661.363281	26.452036
485.322357	1058.117188	57973.445313	15500.847656	25.375818
485.675964	1133.209351	54819.570313	14199.250000	24.337730
486.029572	1110.454102	51119.574219	12995.499023	23.765755
486.383148	969.371887	47931.570313	12123.974609	23.752300
486.736694	1028.535400	45879.050781	11250.174805	22.790462
487.090149	1074.045776	45740.242188	11227.419922	22.731674
487.443604	1069.494751	46859.800781	11486.829102	22.750086
487.796997	1071.770264	48165.949219	11898.698242	22.989948
488.150360	1067.219238	50236.671875	12519.915039	23.292297
488.503693	1042.188477	50939.808594	12390.210938	22.742613
488.856964	1071.770264	49988.640625	12105.770508	22.556635
489.210175	1051.290649	47296.699219	11593.778320	22.796829
489.563416	1046.739624	44905.128906	10863.335938	22.382483
489.916565	1110.454102	42374.750000	10060.077148	21.688540
490.269653	1083.147949	39924.011719	9361.492188	21.313490
490.622772	1115.005249	38645.167969	9088.429688	21.245375
490.975769	1035.361938	38567.800781	9165.797852	21.662424
491.328735	1083.147949	40046.890625	9445.686523	21.462360
491.681732	1049.015137	42024.316406	9764.259766	21.269506
492.034607	1042.188477	44613.859375	10244.394531	21.119699
492.387482	1017.157776	45430.773438	10285.354492	20.867916
492.740326	1099.076538	44852.789063	10130.618164	20.641773
493.093079	1028.535400	42939.078125	9518.503906	20.257359
493.445862	1021.708862	39093.449219	8756.204102	20.315580
493.798523	1033.086426	36228.566406	8009.833008	19.822847
494.151215	1101.352051	33502.492188	7450.055176	19.594072
494.503815	1058.117188	30969.837891	6949.440430	19.695702
494.856384	1064.943726	29026.542969	6658.173828	20.003254
495.208923	1046.739624	28182.324219	6264.508789	19.228512
495.561432	1117.280762	27435.955078	6082.467285	18.865641
495.913879	1083.147949	26468.857422	6071.089355	19.648621
496.266296	1049.015137	26971.748047	5980.068848	19.022121
496.618683	1080.872437	26951.267578	6025.579102	19.113379
496.970978	1110.454102	27611.169922	6032.405762	18.572901
497.323273	1035.361938	27891.058594	5936.833984	18.251144
497.675507	1021.708862	28519.101563	6018.752441	18.172791
498.027710	1099.076538	28473.591797	6121.150879	18.345800
498.379852	1094.525513	27704.464844	5820.782227	17.761246
498.731995	1049.015137	27572.486328	5882.221191	18.222374
499.084076	1121.831787	27021.808594	5659.220215	17.518890
499.436096	1089.974487	26910.308594	5484.005371	17.017715
499.788086	1078.596802	26250.408203	5443.045898	17.338638
500.140106	1087.698975	26009.203125	5281.483887	16.827978
500.491943	1085.423462	25126.300781	5206.391602	17.141506
500.843842	1117.280762	24819.105469	5113.095215	16.858679
501.195679	1046.739624	23968.060547	5188.187500	18.068104
501.547455	1076.321289	24206.990234	4840.032715	16.271521
501.899231	1053.566162	23747.335938	4849.134766	16.725157
502.250885	983.024963	23642.660156	4880.992188	17.202251
502.602600	1010.331238	23276.302734	4587.449707	16.065405
502.954193	1101.352051	23287.679688	4648.889160	15.989744
503.305786	1105.903076	23066.955078	4628.409180	16.039787
503.657379	1094.525513	23490.201172	4657.991211	15.911401
504.008820	1089.974487	23365.046875	4419.061523	14.945348
504.360291	1080.872437	23892.968750	4516.908691	15.062344
504.711700	1026.259888	24034.050781	4589.725586	15.488083
505.063080	1058.117188	24243.398438	4651.164551	15.497105
505.414368	1017.157776	24102.316406	4555.592773	15.327749
505.765656	1028.535400	23754.162109	4587.449707	15.660357
506.116943	1033.086426	23658.589844	4407.683594	14.915014
506.468109	1060.392700	23633.558594	4357.622559	14.606856
506.819305	955.718750	23269.476563	4391.755371	15.398736
507.170410	1030.810913	23540.261719	4248.397461	14.294380
507.521484	1049.015137	23501.578125	4262.050293	14.310328
507.872559	1051.290649	23635.833984	4332.591797	14.528969
508.223480	1053.566162	23506.128906	4216.540039	14.087362
508.574493	1035.361938	24350.347656	4273.428223	13.888348
508.925385	1110.454102	24232.021484	4353.071289	14.024211
509.276245	1126.382813	24641.615234	4289.356934	13.450746
509.627045	1101.352051	25269.658203	4218.815430	12.898973
509.977814	1069.494751	25240.076172	4437.265625	13.933347
510.328613	1051.290649	25167.259766	4318.938477	13.549727
510.679260	1037.637451	25410.740234	4189.233887	12.930633
511.029999	1064.943726	26027.406250	4346.244629	13.144940
511.380585	1110.454102	25783.925781	4300.734375	12.930001
511.731140	1062.668213	26396.041016	4371.275391	13.060271
512.081726	1074.045776	26434.724609	4419.061523	13.189772
512.432129	1089.974487	26805.634766	4312.111816	12.529864
512.782654	1042.188477	26721.441406	4307.561035	12.715995
513.133057	1042.188477	26725.992188	4318.938477	12.758039
513.483398	1030.810913	26682.757813	4184.682617	12.294862
513.833801	1012.606750	26883.001953	4189.233887	12.279006
514.183960	1003.504700	26491.613281	4191.509277	12.507812
514.534302	1092.250000	26061.539063	4182.407227	12.375832
514.884460	1151.413574	26355.082031	4020.845215	11.384976
515.234619	1108.178589	25909.080078	3979.885986	11.579044
515.584717	1124.107300	25827.160156	3938.926514	11.394622
515.934753	1094.525513	25938.662109	3884.313965	11.229163
516.284851	1124.107300	26377.837891	3761.435791	10.443323
516.634766	1130.933838	26582.634766	3829.701416	10.603486
516.984741	1101.352051	27101.453125	3870.660889	10.651146
517.334595	1089.974487	27636.199219	3866.109863	10.457741
517.684448	1101.352051	28589.642578	4105.039551	10.927153
518.034363	1096.801025	29775.189453	4159.651855	10.679996
518.384094	1033.086426	30981.214844	4136.896973	10.363955
518.733826	1064.943726	31898.250000	4184.682617	10.118080
519.083496	992.127075	32942.714844	4384.928711	10.618902
519.433167	1085.423462	33350.031250	4257.499512	9.831442
519.782776	1055.841675	33099.726563	4273.428223	10.041187
520.132324	1069.494751	32849.417969	4150.549805	9.694973
520.481873	1019.433350	32155.384766	4020.845215	9.639699
520.831299	1053.566162	31277.033203	3827.426025	9.177835
521.180786	1030.810913	30674.019531	3777.364502	9.265372
521.530151	1019.433350	29877.587891	3775.089111	9.548967
521.879517	1110.454102	29128.941406	3711.374512	9.282872
522.228882	1085.423462	29019.716797	3747.782715	9.530792
522.578064	1080.872437	29131.216797	3506.577637	8.647684
522.927307	1105.903076	28921.869141	3522.506104	8.687827
523.276489	1087.698975	28976.482422	3463.342773	8.518277
523.625610	1080.872437	29763.812500	3461.067139	8.298295
523.974792	1046.739624	30175.681641	3579.394287	8.694633
524.323792	1055.841675	30758.214844	3417.832275	7.952195
524.672852	1149.138062	31008.521484	3631.731201	8.314281
525.021790	1001.229126	32387.488281	3552.087891	8.127311
525.370728	1037.637451	34075.925781	3693.170166	8.037743
525.719604	1103.627563	35575.492188	3788.742188	7.789294
526.068420	1117.280762	37295.785156	3945.753174	7.818102
526.417297	1010.331238	38852.242188	4075.457764	8.099819
526.765991	1039.912964	40219.832031	3927.548828	7.370193
527.114746	1021.708862	41394.000000	4180.131836	7.823244
527.463379	1051.290649	42413.433594	4150.549805	7.492985
527.812012	1146.862427	45128.128906	4328.040527	7.233030
528.160706	1087.698975	48789.441406	4530.562012	7.217479
528.509155	1126.382813	53490.667969	4903.747559	7.213628
528.857727	1117.280762	57636.667969	5242.799805	7.299299
529.206177	1044.463989	59723.320313	5593.229980	7.751968
529.554565	1044.463989	60041.890625	5506.760254	7.563544
529.902893	1117.280762	58897.304688	5397.535156	7.407845
530.251221	1103.627563	56872.089844	5058.482910	7.091563
530.599548	1069.494751	53677.261719	4689.848145	6.881785
530.947876	1067.219238	50077.386719	4382.652832	6.764787
531.296021	1096.801025	46306.847656	4048.151611	6.528086
531.644165	1078.596802	43284.957031	3759.160400	6.351089
531.992249	1078.596802	41457.714844	3677.241699	6.435616
532.340454	1101.352051	40795.535156	3613.527100	6.328824
532.688354	1094.525513	40647.628906	3568.016602	6.253596
533.036438	1092.250000	41871.859375	3547.536865	6.020869
533.384338	1080.872437	44229.296875	3640.833252	5.932919
533.732239	987.576050	46543.503906	3827.426025	6.233766
534.080139	1026.259888	47260.292969	3825.150391	6.053746
534.427917	1021.708862	46543.503906	3738.680664	5.968507
534.775757	1074.045776	44293.011719	3645.384277	5.949560
535.123474	1096.801025	42265.523438	3424.658691	5.654433
535.471191	1019.433350	39933.113281	3162.973877	5.508450
535.818848	1064.943726	38665.648438	3124.290039	5.476882
536.166382	1049.015137	37241.171875	3108.361328	5.690034
536.513977	1115.005249	37566.574219	2924.044189	4.962856
536.861511	1026.259888	38142.281250	3024.167236	5.382871
537.208984	1042.188477	38155.933594	2996.860840	5.266707
537.556396	1121.831787	37910.175781	3019.616211	5.158657
537.903809	1083.147949	36893.019531	2962.728027	5.248776
538.251160	1060.392700	36135.269531	2871.707275	5.164137
538.598389	1094.525513	34929.246094	2780.686523	4.983523
538.945740	1023.984375	33409.195313	2605.471436	4.883362
539.292969	1021.708862	32917.683594	2635.052979	5.058143
539.640137	1049.015137	32640.070313	2619.124512	4.970108
539.987244	1087.698975	33102.000000	2623.675537	4.797782
540.334351	1108.178589	34069.097656	2641.879639	4.653090
540.681458	1103.627563	35668.789063	2719.247314	4.674128
541.028442	1003.504700	39063.867188	2858.054199	4.872653
541.375366	1103.627563	42406.605469	2946.799316	4.462564
541.722290	1039.912964	46402.421875	3181.177979	4.720341
542.069153	1074.045776	47808.691406	3310.882813	4.786250
542.416016	1069.494751	48611.949219	3122.014648	4.317236
542.762756	1080.872437	47312.628906	3167.524902	4.513461
543.109558	1155.964600	45380.710938	2974.105713	4.111140
543.456299	1039.912964	43394.183594	2860.329590	4.298071
543.802917	1142.311401	41728.500000	2869.431641	4.255438
544.149536	985.300537	39321.000000	2637.328613	4.309372
544.496094	1071.770264	37211.589844	2553.134277	4.098980
544.842651	1021.708862	35589.144531	2487.144287	4.239352
545.189148	1133.209351	34050.894531	2325.582275	3.622287
545.535583	1046.739624	32621.867188	2293.724854	3.949264
545.882019	1092.250000	31777.648438	2261.867676	3.811642
546.228333	1008.055725	31261.105469	2307.378174	4.294848
546.574707	1005.780212	31363.503906	2368.817139	4.489918
546.920898	1080.872437	31147.328125	2305.102539	4.071747
547.267212	1092.250000	31481.830078	2266.418701	3.863721
547.613342	1037.637451	31206.492188	2298.276123	4.178609
547.959473	1055.841675	30660.367188	2093.479248	3.504997
548.305664	996.678101	29986.812500	2127.612061	3.901099
548.651611	1089.974487	28905.941406	2007.009399	3.296793
548.997742	1042.188477	27690.812500	2022.937988	3.680301
549.343689	1049.015137	26250.408203	1915.988525	3.440181
549.689575	1074.045776	25733.865234	2002.458252	3.764879
550.035522	1083.147949	24718.982422	1834.069824	3.177048
550.381287	1108.178589	23776.916016	1781.732788	2.971291
550.727173	1101.352051	23658.589844	1852.273926	3.328962
551.072876	1110.454102	23064.679688	1849.998413	3.368574
551.418640	1092.250000	22859.882813	1770.355225	3.115200
551.764282	1080.872437	22759.759766	1779.457275	3.222420
552.109863	1058.117188	22848.503906	1836.345337	3.571429
552.455505	1119.556274	22823.474609	1818.141113	3.218704
552.801025	1069.494751	23465.169922	1708.916138	2.855111
553.146545	1044.463989	23319.537109	1797.661377	3.381346
553.491943	1019.433350	23993.091797	1872.753662	3.714342
553.837341	1012.606750	23767.814453	1838.620850	3.630000
554.182800	1060.392700	23617.630859	1758.977539	3.096943
554.528015	971.647400	23305.884766	1768.079712	3.565970
554.873352	1049.015137	23101.087891	1811.314575	3.456815
555.218628	1028.535400	22682.390625	1708.916138	3.142077
555.563721	1055.841675	22240.939453	1608.793213	2.610097
555.908875	1042.188477	22040.695313	1645.201538	2.871695
556.254028	1058.117188	21446.783203	1663.405762	2.968750
556.599121	1060.392700	21355.763672	1706.640625	3.184213
556.944031	1053.566162	21205.578125	1531.425537	2.371274
557.289063	1126.382813	20902.933594	1702.089600	2.911058
557.633972	1074.045776	21037.189453	1590.588989	2.587484
557.978882	1060.392700	20727.718750	1642.926025	2.961935
558.323792	1137.760376	20529.748047	1611.068726	2.440742
558.668518	1110.454102	20140.634766	1649.752563	2.833912
559.013306	1087.698975	20479.687500	1583.762451	2.558085
559.358032	1124.107300	19967.695313	1533.701050	2.173651
559.702637	1085.423462	20211.175781	1626.997314	2.831647
560.047363	1008.055725	20322.675781	1583.762451	2.980679
560.391846	1044.463989	20072.369141	1674.783325	3.312605
560.736450	1101.352051	20179.318359	1590.588989	2.564408
561.080933	1089.974487	19878.949219	1617.895264	2.809737
561.425354	1089.974487	20532.023438	1599.691162	2.621723
561.769775	1092.250000	20454.656250	1595.140137	2.597250
562.114136	1026.259888	20689.035156	1638.375000	3.113066
562.458496	1046.739624	20798.259766	1570.109375	2.649770
562.802673	1058.117188	20650.351563	1624.721802	2.891986
563.146912	1094.525513	20354.533203	1561.007324	2.422023
563.491150	1046.739624	20263.513672	1563.282837	2.687981
563.835266	1049.015137	20231.656250	1488.190552	2.289442
564.179443	1080.872437	20290.818359	1601.966675	2.712627
564.523438	1096.801025	20038.236328	1535.976563	2.318597
564.867493	1049.015137	20190.695313	1656.579102	3.174037
565.211426	1067.219238	20664.003906	1556.456177	2.496516
565.555359	1064.943726	20982.578125	1529.150024	2.330630
565.899231	1060.392700	21453.609375	1495.017212	2.131221
566.243042	1128.658325	21751.703125	1535.976563	1.975064
566.586914	1055.841675	22418.431641	1624.721802	2.662974
566.930603	1069.494751	23139.771484	1642.926025	2.598206
567.274292	1105.903076	22932.699219	1533.701050	1.959967
567.617981	1162.791138	22978.208984	1606.517700	2.034004
567.961609	1074.045776	22209.083984	1642.926025	2.691645
568.305237	1060.392700	21926.917969	1570.109375	2.442748
568.648682	1096.801025	21635.652344	1542.803101	2.171504
568.992188	1042.188477	21128.210938	1572.384888	2.639629
569.335632	1103.627563	21289.773438	1563.282837	2.277083
569.679016	1067.219238	21207.853516	1456.333252	1.931985
570.022461	1074.045776	21098.628906	1542.803101	2.340909
570.365662	1103.627563	21114.556641	1508.670288	2.024107
570.708984	1085.423462	20937.066406	1463.159912	1.902797
571.052185	1155.964600	21298.875000	1531.425537	1.863986
571.395386	1042.188477	21376.242188	1567.833862	2.585050
571.738525	1069.494751	22161.296875	1474.537476	1.920380
572.081604	1069.494751	22507.175781	1515.496826	2.080459
572.424683	1092.250000	22880.361328	1615.619751	2.402089
572.767578	1110.454102	23192.107422	1556.456177	2.019786
573.110596	980.749451	22955.453125	1576.935913	2.713058
573.453552	1119.556274	23005.515625	1540.527588	1.923477
573.796387	1060.392700	22577.716797	1535.976563	2.210237
574.139282	1094.525513	22602.748047	1563.282837	2.179433
574.481995	1019.433350	22004.287109	1572.384888	2.635003
574.824768	980.749451	22031.591797	1492.741699	2.432170
575.167480	1017.157776	22243.216797	1469.986450	2.133362
575.510132	1074.045776	21806.316406	1508.670288	2.096367
575.852722	1039.912964	21851.826172	1540.527588	2.405423
576.195251	1039.912964	21751.703125	1626.997314	2.834542
576.537842	1039.912964	21378.517578	1588.313477	2.696352
576.880188	1092.250000	20907.484375	1497.292725	2.044098
577.222717	1049.015137	20268.064453	1444.955688	2.060146
577.565063	1044.463989	20058.716797	1399.445313	1.866922
577.907410	1092.250000	19883.500000	1495.017212	2.143376
578.249756	1085.423462	19228.150391	1476.812988	2.157281
578.591919	1053.566162	19219.048828	1499.568237	2.455217
578.934204	1069.494751	18461.300781	1431.302612	2.080335
579.276306	1119.556274	18540.943359	1399.445313	1.606583
579.618469	1001.229126	17869.664063	1347.108276	2.050452
579.960571	1071.770264	17610.255859	1417.649414	2.091359
580.302551	1053.566162	17432.765625	1383.516602	2.014448
580.644531	1130.933838	17309.886719	1410.822876	1.729958
580.986511	1053.566162	17364.500000	1358.485962	1.869420
581.328369	1035.361938	17171.080078	1433.578125	2.467917
581.670227	1101.352051	17143.773438	1388.067749	1.787235
582.012024	1101.352051	16706.873047	1433.578125	2.128901
582.353821	1115.005249	16665.914063	1417.649414	1.946151
582.695496	1019.433350	16583.996094	1324.353149	1.959064
583.037231	1110.454102	16606.750000	1426.751587	2.041117
583.378845	1076.321289	16540.759766	1431.302612	2.295469
583.720398	989.851563	16306.381836	1365.312500	2.451344
584.062012	1062.668213	16304.106445	1383.516602	2.105106
584.403442	1078.596802	16602.199219	1419.924927	2.198769
584.744934	1019.433350	16310.933594	1383.516602	2.380952
585.086365	1071.770264	16215.361328	1351.659302	1.848234
585.427734	1130.933838	15933.196289	1333.455200	1.368178
585.768982	1115.005249	15933.196289	1353.934937	1.612408
586.110291	1153.689087	15910.441406	1301.597900	1.002313
586.451599	1005.780212	15994.635742	1490.466064	3.233642
586.792725	1117.280762	15908.166016	1356.210449	1.615385
587.133850	1053.566162	15853.553711	1403.996338	2.367774
587.474915	1103.627563	15914.992188	1388.067749	1.920419
587.815979	1099.076538	15967.329102	1415.373901	2.127334
588.157043	1055.841675	16288.177734	1356.210449	1.971915
588.497925	1146.862427	16358.718750	1365.312500	1.436051
588.838867	1078.596802	16156.197266	1312.975464	1.554482
589.179749	1108.178589	16465.667969	1399.445313	1.896578
589.520569	1055.841675	16404.228516	1394.894287	2.209044
589.861450	1112.729614	16820.650391	1392.618774	1.781834
590.202087	1087.698975	16579.445313	1433.578125	2.232667
590.542847	1080.872437	16649.986328	1390.343262	1.987723
590.883484	1053.566162	16936.701172	1410.822876	2.249283
591.224121	1085.423462	16627.230469	1390.343262	1.961933
591.564636	1128.658325	16479.322266	1392.618774	1.719538
591.905151	1067.219238	16206.258789	1417.649414	2.314745
592.245667	1101.352051	16219.912109	1369.863525	1.776039
592.585999	1117.280762	16060.625977	1344.832764	1.522765
592.926453	1008.055725	15978.707031	1413.098389	2.705578
593.266724	1110.454102	16395.126953	1328.904175	1.429210
593.607056	1039.912964	16215.361328	1394.894287	2.339182
593.947388	1092.250000	15965.053711	1358.485962	1.790086
594.287476	998.953613	16310.933594	1406.271851	2.660128
594.627686	1003.504700	16488.423828	1465.435425	2.983101
594.967773	1069.494751	16659.087891	1399.445313	2.116480
595.307861	1010.331238	16734.179688	1456.333252	2.836468
595.647888	1112.729614	16918.498047	1504.119263	2.476246
595.987854	985.300537	17132.396484	1460.884399	2.945321
596.327820	1049.015137	17510.132813	1367.588013	1.935305
596.667725	1051.290649	18051.707031	1413.098389	2.128229
597.007568	1076.321289	18513.636719	1324.353149	1.422420
597.347351	1101.352051	19159.884766	1515.496826	2.293347
597.687073	1099.076538	19494.386719	1506.394775	2.214250
598.026794	1119.556274	19023.353516	1438.129150	1.779359
598.366455	1064.943726	18766.220703	1338.006226	1.542615
598.706116	1099.076538	18117.697266	1410.822876	1.831796
599.045654	1012.606750	17769.541016	1435.853638	2.525802
599.385193	1049.015137	17109.640625	1328.904175	1.742703
599.724731	987.576050	16552.138672	1381.241089	2.529239
600.064087	1067.219238	16185.779297	1363.036987	1.956653
600.403564	1058.117188	15742.052734	1358.485962	2.045560
600.742920	1019.433350	15503.123047	1397.169800	2.608013
601.082153	1023.984375	15664.685547	1449.506714	2.906434
601.421387	964.820801	15118.560547	1363.036987	2.813505
601.760620	1019.433350	15261.917969	1369.863525	2.460457
602.099854	1108.178589	15537.255859	1431.302612	2.239395
602.438843	1083.147949	15377.969727	1376.690063	2.053486
602.778015	1062.668213	15705.644531	1390.343262	2.237763
603.117065	1014.882263	16342.790039	1365.312500	2.286223
603.456055	1051.290649	16586.271484	1360.761475	1.992090
603.794983	1087.698975	17064.130859	1433.578125	2.164934
604.133850	1055.841675	17767.265625	1422.200562	2.192266
604.472778	1076.321289	18063.083984	1444.955688	2.170128
604.811584	1092.250000	18832.210938	1454.057739	2.039507
605.150330	1037.637451	19125.751953	1469.986450	2.390238
605.489075	1023.984375	19621.816406	1499.568237	2.557200
605.827698	1126.382813	19665.050781	1388.067749	1.411563
606.166382	1053.566162	18898.201172	1376.690063	1.810762
606.504883	1080.872437	18415.789063	1460.884399	2.192177
606.843445	1076.321289	17844.634766	1469.986450	2.347673
607.181946	971.647400	17259.826172	1463.159912	3.017603
607.520386	1019.433350	16524.832031	1369.863525	2.260053
607.858826	1008.055725	16258.595703	1442.680176	2.849895
608.197083	1053.566162	16203.983398	1331.179688	1.832382
608.535461	1071.770264	15494.021484	1381.241089	2.145787
608.873718	1046.739624	16017.390625	1417.649414	2.477580
609.211914	1071.770264	16108.412109	1408.547363	2.239710
609.550171	1078.596802	16954.906250	1413.098389	2.106923
609.888245	1094.525513	17064.130859	1406.271851	1.952123
610.226318	1103.627563	17516.958984	1381.241089	1.691390
610.564392	1030.810913	17237.070313	1447.231201	2.569503
610.902344	1078.596802	17130.121094	1410.822876	2.069748
611.240295	1121.831787	17182.457031	1342.557251	1.374327
611.578247	1103.627563	16754.660156	1444.955688	2.180866
611.916138	1135.484863	16320.035156	1394.894287	1.708377
612.253845	1049.015137	15530.429688	1322.077637	1.885607
612.591675	1103.627563	15441.684570	1328.904175	1.571180
612.929382	1037.637451	15009.334961	1369.863525	2.377851
613.267090	1001.229126	14262.964844	1317.526489	2.385037
613.604736	1133.209351	14442.730469	1276.567139	1.077107
613.942261	1042.188477	14265.240234	1344.832764	2.288763
614.279785	946.616638	14226.555664	1365.312500	3.152845
614.617310	978.473938	14064.994141	1429.027100	3.442880
614.954712	1008.055725	13730.492188	1349.383789	2.682883
615.292175	1044.463989	14003.554688	1326.628662	2.177349
615.629517	1126.382813	13571.206055	1328.904175	1.627354
615.966797	1089.974487	13543.899414	1240.158813	1.205920
616.304138	1076.321289	13409.644531	1267.465088	1.549816
616.641296	1064.943726	13719.115234	1274.291626	1.654379
616.978516	1033.086426	13325.450195	1237.883301	1.666050
617.315552	1085.423462	13637.196289	1294.771362	1.667875
617.652771	1121.831787	13418.746094	1256.087524	1.091784
617.989685	1017.157776	13628.093750	1338.006226	2.544208
618.326721	1108.178589	13477.910156	1328.904175	1.784401
618.663696	1092.250000	13568.930664	1333.455200	1.933248
619.000549	1121.831787	13816.961914	1301.597900	1.416024
619.337463	1074.045776	13587.134766	1283.393677	1.673031
619.674194	1076.321289	13578.032227	1344.832764	2.147798
620.010986	1087.698975	13457.429688	1353.934937	2.152318
620.347778	1076.321289	13430.124023	1283.393677	1.676183
620.684387	1101.352051	13434.674805	1301.597900	1.623616
621.020996	1030.810913	13248.082031	1388.067749	2.924195
621.357605	1078.596802	13150.234375	1246.985352	1.394911
621.694214	1058.117188	13145.683594	1278.842651	1.826054
622.030579	1080.872437	13015.978516	1331.179688	2.097235
622.367065	1012.606750	13086.520508	1308.424438	2.450056
622.703430	1067.219238	13047.835938	1228.781250	1.348528
623.039795	1026.259888	12902.203125	1267.465088	2.031040
623.376160	1030.810913	12890.825195	1203.750488	1.458173
623.712402	1178.719727	12827.110352	1253.812012	0.644658
624.048645	1099.076538	12799.804688	1253.812012	1.322443
624.384766	1105.903076	12813.458008	1301.597900	1.671526
624.720886	1042.188477	12918.131836	1201.474976	1.341253
625.057007	1067.219238	12918.131836	1319.802124	2.131337
625.392944	1078.596802	13152.509766	1347.108276	2.223898
625.729004	1083.147949	13116.101563	1301.597900	1.815431
626.064941	1019.433350	13461.981445	1344.832764	2.615215
626.400818	1083.147949	13284.490234	1303.873413	1.809026
626.736633	1099.076538	13919.360352	1317.526489	1.703940
627.072449	1092.250000	13935.289063	1376.690063	2.214741
627.408264	1028.535400	13951.217773	1381.241089	2.729353
627.743896	998.953613	14426.801758	1365.312500	2.728352
628.079590	1021.708862	14181.045898	1301.597900	2.126924
628.415161	1051.290649	14404.046875	1287.944824	1.772325
628.750793	1037.637451	14014.932617	1340.281738	2.332106
629.086365	1105.903076	13707.737305	1335.730713	1.823763
629.421753	1064.943726	13336.827148	1333.455200	2.188022
629.757263	1060.392700	13154.786133	1365.312500	2.521167
630.092651	1008.055725	13097.897461	1276.567139	2.220967
630.427917	1128.658325	12849.866211	1265.189575	1.164822
630.763184	1096.801025	12681.477539	1340.281738	2.101748
631.098511	1128.658325	12681.477539	1287.944824	1.378767
631.433716	1094.525513	12244.577148	1249.260864	1.387755
631.768799	1055.841675	12242.301758	1219.679199	1.464606
632.103943	1133.209351	12019.300781	1249.260864	1.066053
632.438965	1158.240112	12139.903320	1285.669312	1.160382
632.773987	1049.015137	11939.657227	1276.567139	2.089427
633.109070	1030.810913	11873.667969	1299.322388	2.476390
633.443848	1087.698975	11759.891602	1322.077637	2.196162
633.778870	1035.361938	11648.390625	1308.424438	2.572899
634.113708	1046.739624	11991.994141	1331.179688	2.598752
634.448425	951.167725	12080.740234	1347.108276	3.557554
634.783264	985.300537	12060.259766	1219.679199	2.116294
635.117859	1058.117188	11896.422852	1324.353149	2.456435
635.452576	980.749451	12012.474609	1274.291626	2.660891
635.787170	1053.566162	11627.911133	1251.536499	1.872176
636.121704	1085.423462	11705.279297	1258.363037	1.628455
636.456177	1130.933838	11404.910156	1242.434326	1.085271
636.790588	1117.280762	11391.256836	1290.220337	1.683278
637.125122	1080.872437	11275.206055	1274.291626	1.897321
637.459412	1019.433350	11036.276367	1201.474976	1.817355
637.793762	1135.484863	10883.816406	1303.873413	1.727358
638.128052	1067.219238	10963.458984	1217.403687	1.517591
638.462280	1028.535400	10842.856445	1240.158813	2.156271
638.796509	1026.259888	10656.263672	1174.168701	1.535916
639.130615	1067.219238	10603.926758	1299.322388	2.433787
639.464722	1060.392700	10496.977539	1235.607788	1.856764
639.798767	1094.525513	10628.958008	1294.771362	2.100239
640.132751	1071.770264	10590.273438	1237.883301	1.745159
640.466736	1001.229126	10565.243164	1306.148926	3.188199
640.800598	1037.637451	10458.293945	1217.403687	1.908213
641.134521	1076.321289	10214.812500	1242.434326	1.817729
641.468262	1067.219238	10449.191406	1249.260864	1.940334
641.802063	1046.739624	10030.496094	1199.199463	1.697061
642.135803	1099.076538	9953.127930	1267.465088	1.901825
642.469421	1046.739624	9830.250000	1212.852539	1.891190
642.803101	1033.086426	10121.516602	1203.750488	1.877817
643.136658	1083.147949	9918.995117	1215.128052	1.493689
643.470215	1087.698975	9705.096680	1301.597900	2.482175
643.803711	1042.188477	9652.758789	1210.577026	1.955603
644.137085	1067.219238	9889.413086	1228.781250	1.831313
644.470581	1053.566162	9800.667969	1212.852539	1.821019
644.803833	1087.698975	9463.890625	1251.536499	1.955991
645.137207	1092.250000	9816.596680	1219.679199	1.460616
645.470459	1094.525513	9614.075195	1212.852539	1.388888
645.803589	1074.045776	9593.595703	1244.709839	2.003205
646.136780	1128.658325	9834.800781	1312.975464	2.117093
646.469849	1083.147949	9579.942383	1272.016113	2.222816
646.802979	1110.454102	9757.433594	1242.434326	1.526316
647.135986	1089.974487	9868.933594	1242.434326	1.736651
647.468994	1105.903076	9914.444336	1256.087524	1.704987
647.801941	1055.841675	9793.841797	1219.679199	1.875000
648.134766	1105.903076	9873.484375	1281.118164	1.998443
648.467651	1026.259888	9930.373047	1260.638550	2.632252
648.800354	1058.117188	9953.127930	1269.740601	2.379125
649.133179	1058.117188	9841.627930	1242.434326	2.098445
649.465881	1021.708862	9750.606445	1199.199463	2.033368
649.798462	1124.107300	9616.350586	1224.230225	1.178993
650.131104	1049.015137	9666.412109	1251.536499	2.350146
650.463623	1071.770264	9641.381836	1246.985352	2.044610
650.796143	1064.943726	9689.167969	1260.638550	2.269130
651.128662	1042.188477	9641.381836	1210.577026	1.958190
651.461060	1055.841675	9680.065430	1283.393677	2.638522
651.793396	1035.361938	9766.535156	1276.567139	2.762575
652.125732	1046.739624	9693.718750	1285.669312	2.763158
652.458008	1019.433350	9698.269531	1221.954712	2.333508
652.790222	1074.045776	9796.117188	1324.353149	2.869816
653.122437	1080.872437	9680.065430	1253.812012	2.011114
653.454529	1062.668213	9627.728516	1256.087524	2.258236
653.786621	1010.331238	9707.372070	1262.914063	2.904239
654.118713	1069.494751	9516.227539	1276.567139	2.451509
654.450623	1062.668213	9504.850586	1217.403687	1.832885
654.782654	1062.668213	9536.708008	1210.577026	1.745434
655.114502	1071.770264	9472.993164	1215.128052	1.706392
655.446350	1130.933838	9309.155273	1265.189575	1.641625
655.778198	1062.668213	9350.115234	1244.709839	2.196595
656.109863	1094.525513	9106.633789	1192.372925	1.221244
656.441650	1021.708862	9158.971680	1283.393677	3.215883
656.773254	1021.708862	9067.950195	1146.862427	1.555429
657.104919	1110.454102	9172.624023	1178.719727	0.846740
657.436462	1101.352051	9252.267578	1240.158813	1.702959
657.767944	1012.606750	9238.614258	1281.118164	3.264177
658.099548	1096.801025	9443.411133	1333.455200	2.835333
658.430908	1067.219238	9798.392578	1117.280762	0.573365
658.762268	1030.810913	9793.841797	1287.944824	2.934303
659.093628	1064.943726	10062.352539	1265.189575	2.225595
659.424927	1094.525513	10335.415039	1335.730713	2.610195
659.756226	1049.015137	10726.804688	1228.781250	1.857512
660.087341	992.127075	10995.316406	1262.914063	2.707006
660.418518	1105.903076	11077.235352	1281.118164	1.757188
660.749573	1144.586914	10704.049805	1317.526489	1.809093
661.080627	1124.107300	10810.999023	1251.536499	1.315481
661.411621	1067.219238	10681.294922	1317.526489	2.603550
661.742554	1124.107300	10344.517578	1297.046875	1.875617
662.073547	1135.484863	10021.393555	1231.056763	1.075544
662.404297	1096.801025	10028.219727	1233.332275	1.528662
662.735229	1080.872437	9645.932617	1224.230225	1.673751
663.065979	1055.841675	9577.666992	1183.270874	1.495328
663.396667	1028.535400	9281.849609	1240.158813	2.564102
663.727417	1099.076538	9067.950195	1212.852539	1.427755
664.057922	1071.770264	9052.021484	1215.128052	1.796407
664.388611	1071.770264	8869.980469	1194.648438	1.575723
664.719116	1078.596802	8922.317383	1158.240112	1.015377
665.049622	1062.668213	8535.478516	1194.648438	1.766139
665.380005	1076.321289	8576.437500	1208.301514	1.759709
665.710388	1049.015137	8644.703125	1244.709839	2.576392
666.040771	1053.566162	8626.499023	1215.128052	2.133413
666.371033	1042.188477	8569.611328	1233.332275	2.539299
666.701294	1046.739624	8360.263672	1233.332275	2.551337
667.031555	1017.157776	8462.662109	1208.301514	2.567237
667.361633	1108.178589	8587.815430	1224.230225	1.551568
667.691772	1099.076538	8464.937500	1231.056763	1.791783
668.021790	1067.219238	8453.559570	1258.363037	2.587801
668.351807	1003.504700	8494.519531	1162.791138	2.126367
668.681763	1037.637451	8360.263672	1185.546387	2.019889
669.011719	1083.147949	8371.640625	1169.617676	1.186387
669.341614	1028.535400	8451.284180	1246.985352	2.942979
669.671387	1044.463989	8567.335938	1185.546387	1.875379
670.001221	1055.841675	8535.478516	1162.791138	1.429875
670.330933	1039.912964	8317.028320	1176.444214	1.876173
670.660583	983.024963	8357.988281	1203.750488	2.992903
670.990173	1023.984375	8235.109375	1137.760376	1.577784
671.319763	1026.259888	8435.355469	1224.230225	2.671991
671.649292	1085.423462	8180.497070	1221.954712	1.924311
671.978821	1064.943726	8244.211914	1231.056763	2.313788
672.308289	1080.872437	8230.558594	1203.750488	1.718650
672.637695	1037.637451	8273.793945	1183.270874	2.012580
672.966980	1064.943726	8096.303223	1228.781250	2.330097
673.296326	1062.668213	8146.364258	1226.505737	2.312882
673.625610	1092.250000	7943.843262	1199.199463	1.560943
673.954773	1137.760376	8098.578613	1269.740601	1.896045
674.283936	1060.392700	7946.118652	1237.883301	2.577660
674.613037	1089.974487	7948.394043	1219.679199	1.891175
674.942078	1067.219238	7798.209961	1265.189575	2.941177
675.271118	1044.463989	7882.404297	1203.750488	2.329451
675.600098	1124.107300	7682.158203	1226.505737	1.561416
675.928955	1046.739624	7884.679688	1171.893188	1.830282
676.257813	1087.698975	7600.239258	1185.546387	1.502446
676.586670	1119.556274	7864.199707	1162.791138	0.641025
676.915466	1142.311401	7709.464355	1183.270874	0.623702
677.244141	1110.454102	7793.658691	1228.781250	1.770515
677.572876	1067.219238	7686.709473	1165.066650	1.478171
677.901489	1030.810913	7743.597168	1267.465088	3.525424
678.230042	1071.770264	7770.903320	1203.750488	1.970109
678.558594	1117.280762	7759.525879	1185.546387	1.027749
678.887085	1049.015137	7850.546875	1224.230225	2.576112
679.215515	1035.361938	7841.444824	1267.465088	3.410231
679.543945	1003.504700	8039.415039	1190.097412	2.652005
679.872253	1083.147949	8189.599121	1174.168701	1.280819
680.200562	1101.352051	8362.539063	1176.444214	1.034158
680.528809	1076.321289	8114.507324	1169.617676	1.325574
680.856995	1058.117188	8619.672852	1240.158813	2.407463
681.185120	1103.627563	8521.825195	1206.026001	1.380368
681.513306	1055.841675	8569.611328	1185.546387	1.726227
681.841309	1087.698975	8565.060547	1171.893188	1.125988
682.169373	1108.178589	8403.498047	1219.679199	1.528386
682.497314	1074.045776	8207.803711	1215.128052	1.977671
682.825134	1051.290649	8196.425781	1233.332275	2.547770
683.153076	983.024963	8339.784180	1160.515625	2.412620
683.480896	1080.872437	8178.221680	1240.158813	2.244308
683.808655	1049.015137	8187.323730	1244.709839	2.741472
684.136414	1044.463989	8082.649902	1253.812012	2.974460
684.464050	1135.484863	7786.832031	1142.311401	0.102634
684.791626	1112.729614	7780.005859	1183.270874	1.058022
685.119263	1085.423462	7543.351563	1224.230225	2.149401
685.446838	1083.147949	7468.259277	1203.750488	1.888809
685.774292	1039.912964	7431.851074	1215.128052	2.741189
686.101685	1003.504700	7527.422852	1135.484863	2.023020
686.429077	1078.596802	7502.392090	1201.474976	1.912859
686.756348	1069.494751	7293.043945	1249.260864	2.888482
687.083679	1033.086426	7233.880859	1206.026001	2.788991
687.410950	1080.872437	7497.840820	1194.648438	1.773049
687.738159	1151.413574	7327.176758	1278.842651	2.063374
688.065308	1126.382813	7570.657715	1133.209351	0.105932
688.392395	1115.005249	7527.422852	1212.852539	1.525903
688.719421	1089.974487	7531.973633	1237.883301	2.296008
689.046448	1085.423462	7459.157227	1242.434326	2.463405
689.373413	1060.392700	7475.085938	1140.035889	1.241574
689.700317	1055.841675	7324.901367	1169.617676	1.814881
690.027100	1003.504700	7302.146484	1240.158813	3.757225
690.353943	1064.943726	7172.441406	1140.035889	1.229508
690.680725	1008.055725	7006.328613	1119.556274	1.858878
691.007446	1051.290649	6979.022461	1142.311401	1.535507
691.334106	1026.259888	6812.909180	1142.311401	2.005504
691.660645	1149.138062	6662.725098	1160.515625	0.206355
691.987244	1001.229126	6662.725098	1246.985352	4.340836
692.313721	1044.463989	6551.224609	1167.342163	2.231406
692.640259	1096.801025	6694.582031	1183.270874	1.544716
692.966675	1137.760376	6658.173828	1194.648438	1.030504
693.293030	1089.974487	6535.295898	1137.760376	0.877559
693.619324	1037.637451	6548.948730	1151.413574	2.064411
693.945618	1099.076538	6405.590820	1103.627563	0.085763
694.271851	1046.739624	6419.244141	1092.250000	0.847098
694.598083	1117.280762	6382.835938	1119.556274	0.043215
694.924194	1051.290649	6341.876465	1206.026001	2.924730
695.250244	1051.290649	6280.437500	1171.893188	2.306352
695.576294	1001.229126	6289.539551	1078.596802	1.462994
695.902283	1060.392700	6216.722656	1171.893188	2.162400
696.228210	1039.912964	6376.009277	1144.586914	1.961620
696.554138	1058.117188	6339.601074	1201.474976	2.714347
696.879944	1101.352051	6360.080566	1135.484863	0.649070
697.205750	1128.658325	6451.101563	1069.494751	-1.111587
697.531433	1033.086426	6517.091797	1149.138062	2.116184
697.857178	1080.872437	6710.510742	1199.199463	2.101858
698.182739	1115.005249	6771.949707	1176.444214	1.086080
698.508423	1078.596802	7233.880859	1199.199463	1.959335
698.833984	1030.810913	7274.839844	1176.444214	2.332361
699.159485	1099.076538	7616.167969	1162.791138	0.977654
699.484924	1087.698975	8057.619141	1256.087524	2.415932
699.810303	1046.739624	8064.445801	1228.781250	2.594033
700.135681	1046.739624	8062.170410	1162.791138	1.654232
700.460999	1051.290649	8028.037598	1260.638550	3.000652
700.786255	1037.637451	7682.158203	1199.199463	2.431507
701.111450	1105.903076	7645.750000	1233.332275	1.948504
701.436646	1067.219238	7363.585449	1171.893188	1.662450
701.761719	1085.423462	7067.767578	1233.332275	2.472422
702.086792	1108.178589	6676.377930	1176.444214	1.225991
702.411865	1105.903076	6735.541504	1115.005249	0.161683
702.736816	1026.259888	6371.458008	1183.270874	2.937421
703.061646	1171.893188	6196.243164	1272.016113	1.992754
703.386536	1037.637451	6118.875488	1176.444214	2.731751
703.711365	1019.433350	5916.354004	1126.382813	2.184015
704.036194	1074.045776	6023.303711	1101.352051	0.551725
704.360901	1124.107300	5818.506836	1187.821899	1.357247
704.685547	1058.117188	5752.516602	1196.923950	2.956859
705.010132	1035.361938	5725.210449	1117.280762	1.746726
705.334717	1035.361938	5520.413574	1169.617676	2.993404
705.659302	1119.556274	5586.403809	1112.729614	-0.152829
705.983765	1099.076538	5615.985352	1110.454102	0.251888
706.308228	1033.086426	5638.740723	1144.586914	2.420948
706.632568	1019.433350	5411.188477	1115.005249	2.176167
706.956909	1060.392700	5436.219238	1101.352051	0.936037
707.281189	1071.770264	5486.280762	1178.719727	2.422680
707.605408	1051.290649	5565.923828	1144.586914	2.066530
707.929626	1162.791138	5600.056641	1158.240112	-0.102564
708.253784	1064.943726	5524.964355	1149.138062	1.887757
708.577820	1058.117188	5625.087402	1167.342163	2.391629
708.901855	1055.841675	5470.352051	1158.240112	2.319588
709.225830	1037.637451	5586.403809	1219.679199	4.002002
709.549805	1099.076538	5575.025879	1133.209351	0.762583
709.873718	1071.770264	5429.392578	1144.586914	1.671018
710.197510	1055.841675	5770.720703	1146.862427	1.930500
710.521362	1051.290649	5595.505859	1192.372925	3.104656
710.845093	1064.943726	5679.699707	1115.005249	1.084814
711.168701	998.953613	5775.271973	1183.270874	3.858982
711.492432	1074.045776	5914.078613	1194.648438	2.491774
711.816040	1083.147949	6116.600098	1187.821899	2.079566
712.139587	1069.494751	6023.303711	1149.138062	1.607719
712.463074	1019.433350	6073.365234	1153.689087	2.656461
712.786499	1087.698975	6061.987305	1128.658325	0.823421
713.109924	1076.321289	5898.149902	1187.821899	2.312413
713.433350	1019.433350	5943.660156	1096.801025	1.571164
713.756592	1135.484863	5811.680176	1174.168701	0.827250
714.079834	996.678101	5836.710938	1094.525513	2.021627
714.403015	1033.086426	5704.730469	1169.617676	2.922553
714.726196	1162.791138	5695.628418	1190.097412	0.602410
715.049255	1119.556274	5636.464844	1210.577026	2.015112
715.372375	1074.045776	5593.229980	1224.230225	3.323265
715.695435	1115.005249	5577.301270	1169.617676	1.223864
716.018311	1096.801025	5643.291504	1185.546387	1.951953
716.341248	1053.566162	5634.189453	1224.230225	3.725783
716.664063	1099.076538	5556.821777	1190.097412	2.041859
716.987000	1035.361938	5600.056641	1206.026001	3.738784
717.309692	1028.535400	5458.974609	1183.270874	3.492554
717.632385	1012.606750	5631.914063	1115.005249	2.216750
717.955078	1121.831787	5411.188477	1133.209351	0.265251
718.277649	1092.250000	5379.331055	1155.964600	1.486200
718.600220	1103.627563	5192.738281	1110.454102	0.166944
718.922791	1012.606750	5210.942871	1169.617676	3.739837
719.245300	1046.739624	5001.594727	1126.382813	2.013808
719.567688	1039.912964	5081.237793	1117.280762	1.914417
719.890015	1035.361938	4833.206055	1126.382813	2.396646
720.212341	1044.463989	4853.686035	1210.577026	4.360813
720.534607	1092.250000	4735.358887	1165.066650	1.998750
720.856873	1001.229126	4842.308105	1115.005249	2.962087
721.179016	1051.290649	4783.144531	1130.933838	2.134145
721.501160	1062.668213	4703.501465	1067.219238	0.125000
721.823242	1105.903076	4626.133789	1080.872437	-0.711051
722.145264	1044.463989	4592.000977	1135.484863	2.565748
722.467224	1112.729614	4523.735352	1119.556274	0.200136
722.789185	1112.729614	4546.490723	1162.791138	1.457921
723.111023	1096.801025	4489.602539	1140.035889	1.274312
723.432861	1067.219238	4635.235840	1146.862427	2.232142
723.754578	1028.535400	4439.541016	1183.270874	4.536359
724.076294	1117.280762	4432.714355	1201.474976	2.539463
724.397949	1071.770264	4460.020996	1219.679199	4.365348
724.719666	1055.841675	4478.225098	1183.270874	3.723405
725.041260	1051.290649	4380.377441	1124.107300	2.187286
725.362732	1042.188477	4421.336914	1203.750488	4.781146
725.684265	1033.086426	4566.970215	1158.240112	3.541534
726.005676	1035.361938	4437.265625	1074.045776	1.137123
726.327087	1058.117188	4596.552246	1103.627563	1.286172
726.648438	1037.637451	4512.357910	1201.474976	4.715128
726.969666	994.402588	4471.398438	1196.923950	5.824607
727.290894	1099.076538	4416.785645	1105.903076	0.205761
727.612061	1110.454102	4557.868164	1162.791138	1.518153
727.933228	1112.729614	4648.889160	1162.791138	1.415703
728.254395	1089.974487	4562.419434	1099.076538	0.262122
728.575378	1030.810913	4860.512207	1235.607788	5.347594
728.896301	1108.178589	4837.757324	1160.515625	1.403296
729.217285	1087.698975	4803.624512	1133.209351	1.224739
729.538147	1101.352051	4819.553223	1180.995239	2.141982
729.858948	1064.943726	4926.502441	1190.097412	3.241015
730.179810	1037.637451	4906.022949	1087.698975	1.294119
730.500549	1074.045776	4721.705566	1162.791138	2.432940
730.821228	1058.117188	4721.705566	1115.005249	1.552796
731.141846	1108.178589	4687.572754	1158.240112	1.398603
731.462402	1096.801025	4764.940430	1180.995239	2.295284
731.782898	1062.668213	4824.104004	1096.801025	0.907441
732.103455	1094.525513	4926.502441	1130.933838	0.950119
732.423889	1085.423462	4871.890137	1060.392700	-0.661059
732.744263	1064.943726	4896.920898	1206.026001	3.681710
733.064636	1076.321289	4919.675781	1162.791138	2.249854
733.384888	1021.708862	4842.308105	1180.995239	4.169147
733.705200	1080.872437	4803.624512	1231.056763	4.034229
734.025330	992.127075	4874.165527	1176.444214	4.747947
734.345520	1083.147949	4719.430176	1194.648438	3.066332
734.665527	1069.494751	4817.277344	1194.648438	3.339406
734.985596	1069.494751	4601.103027	1231.056763	4.574743
735.305542	1071.770264	4592.000977	1226.505737	4.395606
735.625549	1146.862427	4596.552246	1135.484863	-0.329814
735.945435	1108.178589	4416.785645	1169.617676	1.856947
736.265259	1014.882263	4428.163574	1260.638550	7.200001
736.585083	1064.943726	4487.327148	1160.515625	2.792554
736.904785	1119.556274	4373.550781	1140.035889	0.629368
737.224426	1096.801025	4369.000000	1108.178589	0.347704
737.544128	1128.658325	4400.857422	1183.270874	1.668986
737.863708	1076.321289	4257.499512	1169.617676	2.932762
738.183289	1051.290649	4462.296387	1203.750488	4.469645
738.502808	1062.668213	4462.296387	1140.035889	2.275769
738.822205	1021.708862	4419.061523	1140.035889	3.482919
739.141541	1062.668213	4384.928711	1224.230225	4.863015
739.460938	1033.086426	4621.582520	1235.607788	5.643628
739.780212	1089.974487	4548.766113	1231.056763	4.078947
740.099426	1115.005249	4578.347656	1219.679199	3.022339
740.418640	1069.494751	4562.419434	1146.862427	2.214983
740.737793	989.851563	4494.153809	1192.372925	5.779221
741.056885	1021.708862	4380.377441	1292.495850	8.062331
741.375977	1035.361938	4444.092285	1160.515625	3.671563
741.694946	1030.810913	4330.315918	1165.066650	4.068966
742.013855	1115.005249	4357.622559	1276.567139	4.982453
742.332703	1087.698975	4259.774902	1260.638550	5.451937
742.651550	1023.984375	4200.611328	1171.893188	4.656159
742.970398	1049.015137	4123.243652	1196.923950	4.811250
743.289124	1085.423462	4291.632324	1178.719727	2.909862
743.607788	1067.219238	4268.876953	1176.444214	3.411513
743.926453	1062.668213	4173.305176	1206.026001	4.608631
744.245056	1051.290649	4018.569824	1178.719727	4.294476
744.563599	1021.708862	3963.957275	1176.444214	5.259085
744.882141	1074.045776	3959.406250	1135.484863	2.129339
745.200500	1028.535400	3954.855225	1228.781250	6.842924
745.518860	1083.147949	4027.671875	1183.270874	3.400309
745.837219	1115.005249	3897.967041	1151.413574	1.308258
746.155518	1133.209351	4009.467773	1253.812012	4.193040
746.473755	1058.117188	3850.181152	1185.546387	4.563979
746.791992	1005.780212	3929.824463	1187.821899	6.225682
747.110107	1019.433350	3913.895752	1158.240112	4.795598
747.428162	1078.596802	3979.885986	1285.669312	7.137259
747.746216	1039.912964	3761.435791	1246.985352	7.608695
748.064148	1126.382813	3825.150391	1265.189575	5.143339
748.382080	1076.321289	3816.048340	1253.812012	6.478409
748.700073	1028.535400	3902.518066	1262.914063	8.155187
749.017822	1151.413574	3975.334961	1180.995239	1.047539
749.335632	1069.494751	4004.916504	1256.087524	6.356591
749.653320	1055.841675	4009.467773	1226.505737	5.778121
749.971008	1083.147949	3943.477539	1299.322388	7.557676
750.288696	1064.943726	4032.222900	1310.699951	8.282207
750.606262	1010.331238	3859.283203	1249.260864	8.386580
750.923828	1033.086426	3938.926514	1258.363037	7.752547
751.241272	1064.943726	3925.273438	1224.230225	5.568816
751.558716	1037.637451	3902.518066	1290.220337	8.816524
751.876038	1053.566162	3750.058350	1201.474976	5.485230
752.193481	1087.698975	3813.772949	1262.914063	6.427378
752.510681	1112.729614	3854.732178	1312.975464	7.302906
752.827942	1060.392700	3779.640137	1228.781250	6.192469
753.145081	1039.912964	3813.772949	1315.250977	9.926168
753.462219	1046.739624	3763.711426	1290.220337	8.961474
753.779297	1042.188477	3877.487549	1290.220337	8.747996
754.096375	1078.596802	3904.793701	1322.077637	8.615141
754.413330	1046.739624	3822.875000	1306.148926	9.344260
754.730286	1108.178589	3684.068115	1372.139038	10.247351
755.047119	1010.331238	3791.017578	1315.250977	10.965629
755.363892	1058.117188	3768.262451	1317.526489	9.571786
755.680725	989.851563	3791.017578	1335.730713	12.347685
755.997498	1135.484863	3704.547852	1319.802124	7.174494
756.314148	1112.729614	3734.129639	1381.241089	10.243056
756.630737	1026.259888	3690.894775	1308.424438	10.589239
756.947327	1062.668213	3595.322754	1324.353149	10.332438
757.263855	1074.045776	3727.302979	1344.832764	10.205832
757.580261	1089.974487	3565.741211	1406.271851	12.775734
757.896729	1101.352051	3674.966064	1308.424438	8.045977
758.213074	1017.157776	3661.312988	1417.649414	15.146298
758.529419	1069.494751	3702.272461	1349.383789	10.630940
758.845642	1069.494751	3784.191162	1417.649414	12.824811
759.161865	1051.290649	3850.181152	1458.608887	14.552846
759.478149	1126.382813	3922.997803	1408.547363	10.089503
759.794189	1083.147949	3795.568604	1410.822876	12.080535
760.110229	1069.494751	3793.293213	1415.373901	12.698413
760.426270	1094.525513	3838.803711	1467.710938	13.598673
760.742249	1078.596802	3788.742188	1472.261963	14.525610
761.058105	1042.188477	3763.711426	1504.119263	16.973246
761.374023	1096.801025	3834.252441	1483.639526	14.131337
761.689819	1019.433350	3791.017578	1447.231201	15.435138
762.005554	1094.525513	3861.558838	1517.772339	15.296052
762.321289	1003.504700	3822.875000	1522.323364	18.401934
762.636902	1155.964600	3913.895752	1526.874512	13.448846
762.952515	1117.280762	3973.059326	1529.150024	14.422311
763.268127	1101.352051	3963.957275	1472.261963	12.957075
763.583618	1087.698975	4057.253662	1583.762451	16.704979
763.899048	1044.463989	4655.715332	1617.895264	15.879018
764.214478	937.514587	5035.727539	1774.906250	20.433094
764.529785	1030.810913	5395.259766	1865.927002	19.134516
764.845093	1071.770264	5493.107422	1863.651489	17.910448
765.160400	1064.943726	5463.525391	1952.396851	20.175894
765.475586	1110.454102	5367.953613	1918.264038	18.973812
765.790771	1092.250000	5167.707520	1884.131226	19.430487
766.105835	1087.698975	4969.737305	1834.069824	19.226261
766.420837	1099.076538	4692.124023	1854.549438	21.025965
766.735840	1078.596802	4642.062500	1777.181763	19.604088
767.050842	1046.739624	4359.897949	1743.048950	21.016483
767.365662	989.851563	4339.417969	1727.120239	22.010870
767.680542	1085.423462	4066.355713	1720.293701	21.297709
767.995300	1124.107300	4086.835449	1633.823975	17.204302
768.309998	1135.484863	4000.365479	1679.334351	18.983320
768.624817	1083.147949	3922.997803	1718.018188	22.355768
768.939392	1046.739624	3784.191162	1690.711914	23.524517
769.254028	1112.729614	3795.568604	1642.926025	19.762514
769.568481	1062.668213	3795.568604	1656.579102	21.731890
769.882935	1023.984375	3659.037354	1690.711914	25.302244
770.197388	1064.943726	3779.640137	1708.916138	23.721710
770.511841	1058.117188	3517.955078	1658.854614	24.421829
770.826172	1053.566162	3618.078125	1747.599976	27.062998
771.140442	1067.219238	3383.699463	1652.028076	25.245579
771.454651	1101.352051	3545.261475	1626.997314	21.508377
771.768860	1167.342163	3360.944336	1649.752563	21.991701
772.082886	1039.912964	3354.117676	1626.997314	25.368732
772.397034	1087.698975	3529.332764	1640.650513	22.646784
772.711060	1119.556274	3372.321777	1642.926025	23.232321
773.025024	1042.188477	3306.331787	1617.895264	25.427135
773.338928	1055.841675	3390.525879	1620.170776	24.171539
773.652771	1103.627563	3449.689453	1638.375000	22.793406
773.966614	1092.250000	3240.341553	1713.467163	28.919493
774.280457	1008.055725	3374.597412	1663.405762	27.692308
774.594116	1035.361938	3283.576416	1645.201538	27.125509
774.907776	1053.566162	3306.331787	1617.895264	25.050503
775.221375	1085.423462	3222.137451	1617.895264	24.920126
775.534912	1039.912964	3281.301025	1599.691162	24.974621
775.848450	1101.352051	3281.301025	1652.028076	25.260960
776.161926	1089.974487	3244.892578	1699.814087	28.299898
776.475342	1023.984375	3092.432861	1624.721802	29.042900
776.788696	1115.005249	3137.943115	1615.619751	24.746904
777.101990	1055.841675	3169.800537	1683.885376	29.709360
777.415283	1076.321289	3235.790527	1640.650513	26.132774
777.728516	1103.627563	2987.758789	1715.742676	32.487923
778.041626	1126.382813	3078.779541	1622.446289	25.407925
778.354736	1010.331238	3078.779541	1581.486938	27.612762
778.667725	1028.535400	3106.085938	1620.170776	28.477545
778.980774	1042.188477	3065.126465	1647.477051	29.921263
779.293640	1030.810913	3069.677490	1663.405762	31.026791
779.606567	1021.708862	2999.136475	1633.823975	30.955122
779.919434	1101.352051	3149.320801	1622.446289	25.444443
780.232239	1089.974487	3085.606201	1642.926025	27.708096
780.544983	1135.484863	3081.055176	1611.068726	24.444445
780.857666	1080.872437	3101.534912	1636.099487	27.477476
781.170227	1003.504700	3101.534912	1586.037964	27.765722
781.482849	1017.157776	3046.922363	1483.639526	22.982061
781.795410	1058.117188	3060.575439	1547.354126	24.431818
782.107910	1019.433350	2976.381104	1597.415649	29.534887
782.420288	1060.392700	2967.279053	1608.793213	28.758951
782.732666	1099.076538	2844.401123	1599.691162	28.683182
783.044983	1121.831787	2924.044189	1615.619751	27.398989
783.357300	1119.556274	2837.574463	1570.109375	26.225164
783.669495	1096.801025	2899.013428	1574.660400	26.515154
783.981689	1023.984375	2899.013428	1620.170776	31.796116
784.293762	1078.596802	2942.248291	1613.344238	28.693533
784.605835	1069.494751	2837.574463	1638.375000	32.175034
784.917908	1155.964600	2871.707275	1524.598877	21.485405
785.229858	1067.219238	2930.870850	1624.721802	29.914528
785.541748	1087.698975	2823.921387	1515.496826	24.639576
785.853577	1071.770264	2796.614990	1574.660400	29.155676
786.165405	1085.423462	2798.890625	1570.109375	28.286852
786.477173	1037.637451	2860.329590	1554.180664	28.339575
786.788879	1044.463989	2771.584229	1599.691162	32.147568
787.100525	1023.984375	2762.482178	1540.527588	29.712044
787.412109	1055.841675	2746.553711	1599.691162	32.166889
787.723694	1083.147949	2778.410889	1540.527588	26.979864
788.035156	1151.413574	2798.890625	1529.150024	22.928177
788.346558	1012.606750	2737.451416	1595.140137	33.773090
788.658081	1030.810913	2801.166016	1647.477051	34.832905
788.969360	1103.627563	2949.074951	1665.681274	30.456230
789.280640	1092.250000	3028.718262	1683.885376	30.552288
789.591919	1083.147949	3101.534912	1706.640625	30.890642
789.903076	1028.535400	3053.749023	1711.191650	33.707863
790.214172	1012.606750	3010.513916	1708.916138	34.851936
790.525269	1094.525513	2926.319824	1679.334351	31.925465
790.836365	1087.698975	2937.697266	1649.752563	30.381304
791.147339	1096.801025	3037.820313	1617.895264	26.846422
791.458191	971.647400	2887.635986	1617.895264	33.729214
791.769104	1055.841675	2844.401123	1597.415649	30.279898
792.079895	1051.290649	2855.778564	1524.598877	26.229504
792.390686	1069.494751	2821.645752	1481.364014	23.506495
792.701416	1080.872437	2714.696289	1556.456177	29.108629
793.012085	1085.423462	2691.941162	1515.496826	26.770535
793.322693	1026.259888	2655.532715	1604.242188	35.474861
793.633240	1058.117188	2591.818115	1549.629639	32.047478
793.943787	1046.739624	2616.848877	1501.843750	28.985506
794.254272	1080.872437	2616.848877	1576.935913	32.296295
794.564636	1083.147949	2519.001465	1586.037964	35.023769
794.875000	1064.943726	2519.001465	1563.282837	34.272305
795.185303	1101.352051	2582.716064	1586.037964	32.718895
795.495544	953.443237	2610.022461	1606.517700	39.423073
795.805786	1049.015137	2582.716064	1554.180664	32.937683
796.115906	1042.188477	2685.114502	1570.109375	32.132969
796.426025	1096.801025	2548.583252	1547.354126	31.034483
796.736023	1112.729614	2721.522949	1647.477051	33.239040
797.045959	1046.739624	2748.829102	1592.864502	32.085556
797.355896	1101.352051	2801.166016	1576.935913	27.978582
797.665833	1060.392700	2757.931152	1622.446289	33.109917
797.975708	1074.045776	2728.349365	1574.660400	30.261351
798.285461	1060.392700	2664.634766	1588.313477	32.907799
798.595154	1058.117188	2767.033203	1611.068726	32.356857
798.904846	1069.494751	2696.492188	1533.701050	28.531471
799.214478	1069.494751	2714.696289	1576.935913	30.843708
799.524109	1133.209351	2607.746826	1626.997314	33.487652
799.833557	1023.984375	2503.072998	1497.292725	32.000000
800.143005	1080.872437	2541.756836	1592.864502	35.046719
800.452393	1026.259888	2646.430664	1531.425537	31.179777
800.761780	1071.770264	2468.940186	1595.140137	37.459286
801.071106	1092.250000	2487.144287	1460.884399	26.427408
801.380371	1121.831787	2534.930176	1463.159912	24.154591
801.689575	1058.117188	2523.552490	1538.252075	32.763977
801.998718	1062.668213	2380.194824	1454.057739	29.706385
802.307800	1105.903076	2539.481201	1515.496826	28.571428
802.616882	1071.770264	2475.766602	1490.466064	29.821716
802.925903	1071.770264	2505.348389	1467.710938	27.619051
803.234863	1092.250000	2471.215576	1506.394775	30.033003
803.543701	1064.943726	2475.766602	1506.394775	31.290323
803.852539	1074.045776	2557.685303	1467.710938	26.533747
804.161316	1076.321289	2427.980713	1485.915039	30.303030
804.470032	1046.739624	2459.837891	1444.955688	28.180351
804.778809	1053.566162	2425.705078	1358.485962	22.222225
805.087341	1069.494751	2455.286865	1467.710938	28.735636
805.395935	1117.280762	2459.837891	1460.884399	25.593224
805.704468	1151.413574	2400.674561	1460.884399	24.772312
806.012939	1046.739624	2473.491211	1403.996338	25.039867
806.321350	1099.076538	2441.633789	1495.017212	29.491529
806.629761	1037.637451	2475.766602	1444.955688	28.322786
806.938049	1019.433350	2430.256104	1522.323364	35.645161
807.246277	1069.494751	2553.134277	1551.905151	32.515339
807.554504	1023.984375	2466.664551	1501.843750	33.123028
807.862671	1014.882263	2491.695313	1492.741699	32.357479
808.170715	1080.872437	2516.726074	1495.017212	28.843105
808.478821	1092.250000	2557.685303	1535.976563	30.279505
808.786804	1042.188477	2448.460449	1467.710938	30.258902
809.094727	1035.361938	2430.256104	1442.680176	29.200655
809.402649	1128.658325	2316.480225	1481.364014	29.693483
809.710510	1005.780212	2412.052002	1469.986450	33.009712
810.018311	1069.494751	2382.470215	1501.843750	32.928947
810.326050	1112.729614	2339.235352	1435.853638	26.345089
810.633667	1023.984375	2446.184814	1399.445313	26.400002
810.941345	1119.556274	2330.133301	1431.302612	25.751879
811.248901	1105.903076	2336.959961	1520.047852	33.641399
811.556396	1096.801025	2334.684326	1431.302612	27.022062
811.863892	1128.658325	2339.235352	1363.036987	19.360905
812.171326	1080.872437	2293.724854	1399.445313	26.266417
812.478699	1023.984375	2321.031250	1388.067749	28.070179
812.786011	1078.596802	2223.183838	1433.578125	31.013922
813.093262	1137.760376	2225.459229	1376.690063	21.966530
813.400391	1101.352051	2307.378174	1378.965576	23.018866
813.707642	1044.463989	2259.592041	1431.302612	31.835215
814.014709	1055.841675	2289.173828	1431.302612	30.442808
814.321716	1026.259888	2220.908203	1353.934937	27.428577
814.628723	1060.392700	2211.806152	1369.863525	26.877472
814.935669	994.402588	2232.285889	1406.271851	33.272060
815.242554	1083.147949	2259.592041	1472.261963	33.075436
815.549438	1010.331238	2234.561523	1410.822876	32.713753
815.856201	1058.117188	2275.520752	1426.751587	30.280378
816.162964	1067.219238	2377.919189	1449.506714	29.166666
816.469604	1030.810913	2214.081787	1431.302612	33.846157
816.776184	1101.352051	2243.663574	1465.435425	31.872511
817.082825	1074.045776	2261.867676	1410.822876	28.352491
817.389343	1130.933838	2282.347412	1463.159912	28.853758
817.695801	1062.668213	2318.755615	1401.720825	26.992756
818.002197	1076.321289	2239.112549	1447.231201	31.898237
818.308533	987.576050	2377.919189	1510.945801	37.643208
818.614868	1074.045776	2275.520752	1481.364014	33.901516
818.921143	1051.290649	2318.755615	1463.159912	32.495514
819.227356	1044.463989	2339.235352	1542.803101	38.488579
819.533447	1014.882263	2309.653564	1497.292725	37.258354
819.839539	1003.504700	2462.113525	1454.057739	30.889229
820.145569	1035.361938	2402.949951	1481.364014	32.612312
820.451538	1062.668213	2598.644775	1524.598877	30.074070
820.757568	1046.739624	2732.900391	1513.221313	27.665316
821.063416	1049.015137	2833.023438	1640.650513	33.163265
821.369263	1096.801025	3003.687500	1647.477051	28.878281
821.675049	1037.637451	3124.290039	1699.814087	31.733919
821.980713	1094.525513	3274.474365	1761.253052	30.584551
822.286438	1103.627563	3547.536865	1941.019287	34.264439
822.592102	1060.392700	4412.234863	2252.765625	35.573658
822.897583	1010.331238	6583.081543	2880.809326	33.564720
823.203125	1064.943726	9411.553711	3713.649902	31.733913
823.508545	1071.770264	11343.471680	4239.295410	30.837397
823.813965	1062.668213	12048.882813	4571.521484	31.938692
824.119263	1128.658325	10826.927734	4273.428223	32.426094
824.424622	1087.698975	9454.789063	3802.395264	32.444927
824.729858	1060.392700	7984.802734	3417.832275	34.045345
825.035095	1105.903076	6967.644531	2862.605225	29.968948
825.340149	1080.872437	6102.946777	2735.176025	32.940643
825.645264	1103.627563	5431.667969	2475.766602	31.703470
825.950256	1087.698975	5017.523438	2361.990479	32.426170
826.255310	1026.259888	4739.909668	2275.520752	33.639706
826.560242	1010.331238	4357.622559	2204.979736	35.690006
826.865112	1060.392700	4171.029785	2045.693237	31.675200
827.169922	1017.157776	4109.590332	2068.448486	33.995590
827.474670	1087.698975	4189.233887	2079.825928	31.988256
827.779419	1060.392700	4703.501465	2216.357178	31.730165
828.084045	1051.290649	5311.065430	2450.735840	32.852562
828.388672	1055.841675	5854.915039	2621.399902	32.622093
828.693176	1096.801025	5679.699707	2455.286865	29.642504
828.997681	1092.250000	5154.054688	2427.980713	32.885155
829.302124	1055.841675	4539.664063	2220.908203	33.442192
829.606567	1039.912964	4093.661865	2086.652588	34.277199
829.910828	1085.423462	3706.823486	1838.620850	28.732639
830.215149	1124.107300	3365.495361	1774.906250	29.035530
830.519348	1053.566162	3238.066162	1722.569214	30.624996
830.823547	1080.872437	2958.177002	1738.497925	35.030304
831.127686	1060.392700	2883.084961	1590.588989	29.088634
831.431763	1130.933838	2664.634766	1558.731689	27.893173
831.735779	1033.086426	2580.440674	1549.629639	33.382351
832.039734	1119.556274	2443.909424	1481.364014	27.319582
832.343628	1037.637451	2302.827148	1479.088501	34.892082
832.647461	1030.810913	2423.429688	1551.905151	37.418297
832.951233	1078.596802	2377.919189	1451.782227	28.721542
833.255127	1094.525513	2339.235352	1415.373901	25.776962
833.558777	1099.076538	2530.379150	1542.803101	31.001589
833.862366	1028.535400	2680.563477	1620.170776	35.812672
834.165955	1023.984375	2776.135498	1708.916138	39.090908
834.469482	1115.005249	3315.433838	1797.661377	31.023779
834.773010	1115.005249	3825.150391	1881.855713	28.295551
835.076416	1110.454102	3936.650879	1931.917114	29.066023
835.379822	1117.280762	4118.692871	2013.835938	29.871113
835.683105	1092.250000	3761.435791	1799.937012	26.513216
835.986389	1119.556274	3413.281250	1824.967651	30.753963
836.289612	1060.392700	3244.892578	1765.804199	32.291668
836.592773	1092.250000	2949.074951	1713.467163	33.455883
836.895874	1115.005249	2817.094727	1570.109375	26.737967
837.198914	1187.821899	2650.981689	1495.017212	20.995337
837.501892	1094.525513	2555.409912	1520.047852	29.127722
837.804871	1101.352051	2496.246338	1438.129150	24.143557
838.107666	1033.086426	2402.949951	1444.955688	30.066444
838.410583	1044.463989	2202.704102	1479.088501	37.524559
838.713379	1042.188477	2195.877686	1397.169800	30.769234
839.016052	1035.361938	2093.479248	1326.628662	27.526884
839.318787	960.269775	2066.172852	1347.108276	34.979424
839.621338	1069.494751	1991.080688	1267.465088	21.481483
839.923889	1023.984375	1913.713013	1444.955688	47.314575
840.226440	1087.698975	2038.866699	1306.148926	22.966501
840.528931	1035.361938	2059.346436	1369.863525	32.666664
840.831299	1069.494751	2168.571289	1442.680176	33.954453
841.133606	1069.494751	2214.081787	1458.608887	33.996029
841.435913	1074.045776	2289.173828	1467.710938	32.397011
841.738220	1083.147949	2198.153076	1424.476074	30.612247
842.040405	1026.259888	2209.530762	1438.129150	34.807690
842.342529	1053.566162	2025.213501	1424.476074	38.173306
842.644592	1080.872437	2007.009399	1347.108276	28.746920
842.946594	1008.055725	2013.835938	1328.904175	31.900454
843.248596	1012.606750	2027.489014	1281.118164	26.457396
843.550598	1028.535400	1947.845825	1324.353149	32.178223
843.852478	1064.943726	1979.703125	1235.607788	18.656715
844.154236	1092.250000	1854.549438	1260.638550	22.089554
844.455994	1028.535400	1799.937012	1262.914063	30.383480
844.757690	1115.005249	1795.385864	1178.719727	9.364534
845.059326	1096.801025	1836.345337	1260.638550	22.153849
845.360962	1080.872437	1722.569214	1219.679199	21.631208
845.662476	1083.147949	1738.497925	1331.179688	37.847218
845.963989	1130.933838	1681.609863	1219.679199	16.115711
846.265381	1119.556274	1722.569214	1276.567139	26.037727
846.566772	1060.392700	1640.650513	1235.607788	30.196075
846.868042	1012.606750	1622.446289	1235.607788	36.567165
847.169373	1039.912964	1695.262939	1249.260864	31.944443
847.470581	1074.045776	1613.344238	1174.168701	18.565401
847.771729	1096.801025	1711.191650	1155.964600	9.629635
848.072815	1115.005249	1690.711914	1169.617676	9.486155
848.373901	1058.117188	1601.966675	1171.893188	20.920494
848.674866	1126.382813	1604.242188	1192.372925	13.809525
848.975891	1058.117188	1672.507813	1231.056763	28.148148
849.276794	1074.045776	1654.303589	1180.995239	18.431370
849.577637	1046.739624	1570.109375	1301.597900	48.695644
849.878357	1060.392700	1617.895264	1281.118164	39.591831
850.179077	1080.872437	1611.068726	1165.066650	15.879820
850.479736	989.851563	1574.660400	1203.750488	36.575871
850.780396	1074.045776	1658.854614	1312.975464	40.856033
851.080994	983.024963	1515.496826	1281.118164	55.982903
851.381470	989.851563	1492.741699	1228.781250	47.511311
851.681946	1046.739624	1649.752563	1226.505737	29.811319
851.982361	987.576050	1601.966675	1162.791138	28.518517
852.282715	1080.872437	1626.997314	1149.138062	12.500003
852.583008	1053.566162	1654.303589	1126.382813	12.121211
852.883240	1069.494751	1631.548462	1151.413574	14.574910
853.183411	1051.290649	1508.670288	1174.168701	26.865658
853.483521	1051.290649	1551.905151	1130.933838	15.909085
853.783630	1076.321289	1554.180664	1187.821899	23.333351
854.083679	1080.872437	1522.323364	1210.577026	29.381430
854.383667	1078.596802	1504.119263	1219.679199	33.155102
854.683533	1089.974487	1604.242188	1210.577026	23.451315
854.983337	1096.801025	1565.558350	1224.230225	27.184471
855.283203	1049.015137	1590.588989	1151.413574	18.907566
855.582886	1062.668213	1556.456177	1158.240112	19.354845
855.882629	1089.974487	1481.364014	1149.138062	15.116289
856.182312	1094.525513	1506.394775	1158.240112	15.469618
856.481873	1046.739624	1576.935913	1160.515625	21.459223
856.781372	1105.903076	1661.130127	1137.760376	5.737707
857.080872	971.647400	1538.252075	1196.923950	39.759033
857.380310	1058.117188	1595.140137	1199.199463	26.271181
857.679688	1099.076538	1567.833862	1112.729614	2.912611
857.979004	1074.045776	1551.905151	1169.617676	20.000006
858.278259	989.851563	1492.741699	1124.107300	26.696833
858.577454	1035.361938	1479.088501	1137.760376	23.076923
858.876648	1080.872437	1576.935913	1192.372925	22.477060
859.175720	1064.943726	1517.772339	1089.974487	5.527646
859.474792	1019.433350	1535.976563	1151.413574	25.550665
859.773743	1042.188477	1540.527588	1158.240112	23.287683
860.072693	1055.841675	1458.608887	1162.791138	26.553667
860.371521	1105.903076	1549.629639	1228.781250	27.692318
860.670349	1080.872437	1574.660400	1169.617676	17.972338
860.969116	1046.739624	1572.384888	1146.862427	19.047600
861.267883	1094.525513	1510.945801	1146.862427	12.568291
861.566589	1074.045776	1526.874512	1219.679199	32.160816
861.865112	1105.903076	1415.373901	1169.617676	20.588242
862.163635	1092.250000	1510.945801	1151.413574	14.130444
862.462158	1030.810913	1522.323364	1240.158813	42.592594
862.760620	1042.188477	1606.517700	1233.332275	33.870972
863.059021	1035.361938	1526.874512	1162.791138	25.925928
863.357361	1110.454102	1463.159912	1180.995239	19.999992
863.655640	1039.912964	1581.486938	1215.128052	32.352936
863.953857	1124.107300	1469.986450	1158.240112	9.868422
864.251953	1067.219238	1631.548462	1196.923950	22.983873
864.550110	1092.250000	1467.710938	1228.781250	36.363636
864.848206	1067.219238	1488.190552	1099.076538	7.567570
865.146179	1108.178589	1574.660400	1128.658325	4.390254
865.444092	1044.463989	1542.803101	1208.301514	32.876713
865.741943	1042.188477	1451.782227	1240.158813	48.333340
866.039795	1014.882263	1426.751587	1221.954712	50.276249
866.337646	1064.943726	1522.323364	1169.617676	22.885572
866.635376	1083.147949	1515.496826	1130.933838	11.052623
866.933044	1019.433350	1535.976563	1224.230225	39.647579
867.230652	1140.035889	1510.945801	1160.515625	5.521485
867.528198	1067.219238	1531.425537	1221.954712	33.333344
867.825745	1089.974487	1495.017212	1149.138062	14.606749
868.123230	1087.698975	1522.323364	1165.066650	17.801043
868.420593	1089.974487	1513.221313	1149.138062	13.978504
868.717896	1003.504700	1554.180664	1162.791138	28.925621
869.015198	1010.331238	1538.252075	1192.372925	34.482761
869.312439	1069.494751	1529.150024	1171.893188	22.277225
869.609619	1105.903076	1474.537476	1169.617676	17.283955
869.906738	1099.076538	1565.558350	1183.270874	18.048794
870.203796	1099.076538	1554.180664	1176.444214	16.999994
870.500854	1078.596802	1588.313477	1212.852539	26.339287
870.797791	1089.974487	1563.282837	1103.627563	2.884605
871.094666	1128.658325	1531.425537	1103.627563	-6.214697
871.391602	1051.290649	1458.608887	1221.954712	41.899441
871.688293	1094.525513	1538.252075	1140.035889	10.256401
871.985107	1108.178589	1454.057739	1171.893188	18.421059
872.281738	1140.035889	1472.261963	1137.760376	-0.684929
872.578369	1014.882263	1485.915039	1117.280762	21.739145
872.874939	1083.147949	1456.333252	1174.168701	24.390230
873.171509	1085.423462	1545.078613	1192.372925	23.267326
873.467957	1051.290649	1497.292725	1155.964600	23.469387
873.764343	1103.627563	1495.017212	1119.556274	4.069783
874.060669	1037.637451	1538.252075	1142.311401	20.909088
874.356995	1049.015137	1522.323364	1199.199463	31.730766
874.653198	992.127075	1501.843750	1155.964600	32.142860
874.949463	1128.658325	1526.874512	1151.413574	5.714295
875.245544	1103.627563	1520.047852	1158.240112	13.114766
875.541626	1035.361938	1517.772339	1144.586914	22.641504
875.837646	1094.525513	1490.466064	1224.230225	32.758633
876.133606	1089.974487	1599.691162	1119.556274	5.803575
876.429565	1080.872437	1533.701050	1140.035889	13.065308
876.725403	1101.352051	1515.496826	1174.168701	17.582415
877.021179	1049.015137	1520.047852	1117.280762	14.492757
877.316956	1062.668213	1485.915039	1196.923950	31.720436
877.612610	1069.494751	1529.150024	1235.607788	36.138611
877.908203	1151.413574	1483.639526	1155.964600	1.369859
878.203857	1037.637451	1535.976563	1162.791138	25.114161
878.499390	1060.392700	1481.364014	1162.791138	24.324327
878.794800	1042.188477	1513.221313	1146.862427	22.222219
879.090271	1026.259888	1561.007324	1190.097412	30.638300
879.385559	1037.637451	1626.997314	1160.515625	20.849430
879.680847	1046.739624	1595.140137	1194.648438	26.970947
879.976196	1076.321289	1636.099487	1151.413574	13.414650
880.271301	1094.525513	1608.793213	1194.648438	19.469028
880.566467	1080.872437	1736.222412	1178.719727	14.930540
880.861572	1062.668213	1849.998413	1294.771362	29.479773
881.156555	1067.219238	1954.672363	1315.250977	27.948715
881.451477	1017.157776	2236.836914	1472.261963	37.313435
881.746460	1078.596802	2978.656738	1654.303589	30.299402
882.041321	1080.872437	3652.210938	1847.722900	29.823008
882.336121	1083.147949	4519.184082	2061.621826	28.476822
882.630798	1067.219238	5158.605469	2368.817139	31.813128
882.925537	1039.912964	5361.126953	2389.296875	31.226965
883.220215	1103.627563	5151.779297	2214.081787	27.431141
883.514771	1060.392700	4464.571777	2091.203613	30.280748
883.809326	1105.903076	4189.233887	1991.080688	28.708487
884.103760	1049.015137	3866.109863	1993.356201	33.521809
884.398132	1044.463989	3572.567627	1781.732788	29.162920
884.692505	1055.841675	3401.903564	1747.599976	29.485933
884.986816	1092.250000	3206.208740	1690.711914	28.310009
885.281067	1051.290649	3065.126465	1622.446289	28.361580
885.575256	1158.240112	2814.819336	1622.446289	28.021973
885.869385	1019.433350	2662.359375	1517.772339	30.332405
886.163452	1062.668213	2434.807373	1406.271851	25.041456
886.457458	1076.321289	2200.428711	1388.067749	27.732800
886.751465	1069.494751	2082.101563	1317.526489	24.494377
887.045410	1142.311401	2002.458252	1349.383789	24.074074
887.339233	1155.964600	1870.478149	1258.363037	14.331210
887.632996	1062.668213	1872.753662	1363.036987	37.078651
887.926758	1089.974487	1765.804199	1276.567139	27.609419
888.220398	1130.933838	1731.671387	1251.536499	20.075766
888.514099	1080.872437	1670.232300	1215.128052	22.779905
888.807678	1105.903076	1595.140137	1233.332275	26.046515
889.101196	1055.841675	1606.517700	1199.199463	26.033054
889.394653	1078.596802	1606.517700	1140.035889	11.637935
889.688049	1087.698975	1563.282837	1119.556274	6.698566
889.981384	1039.912964	1531.425537	1165.066650	25.462967
890.274719	1119.556274	1504.119263	1206.026001	22.485191
890.567932	1085.423462	1545.078613	1231.056763	31.683165
>>>>>End Processed Spectral Data<<<<<
